# XDI/1.0 Athena/0.9.26
# Element.edge:                  K
# Element.symbol:                Co
# Column.1:                      energy eV
# Column.2:                      norm
# Column.3:                      nbkg
# Column.4:                      flat
# Column.5:                      fbkg
# Column.6:                      nder
# Column.7:                      nsec
# Athena.e0:                     7721.54
# Athena.eshift:                 0
# Athena.rbkg:                   1.0
# Athena.importance:             1
# Athena.standard:               None
# Athena.bkg_kweight:            3
# Athena.edge_step:              1.1911010
# Athena.fixed_step:             no
# Athena.pre_edge_range:         -82.964 -19.904
# Athena.pre_edge_line:          -0.050136 + 0.000221173 * E
# Athena.normalization_range:    45 125.256
# Athena.post_edge_polynomial:   15.484498 - 0.00163643 * E + 0 * E^2 + 0 * E^3
# Athena.spline_range_energy:    0.000 125.180
# Athena.clamps:                 0 24
# Athena.spline_range_k:         0.000 5.732
# Athena.kweight:                2
# Athena.window:                 hanning
# Athena.phase_correction:       no
# Athena.k_range:                .4 5.35
# Athena.dk:                     .5
# Athena.r_range:                .4 5.1
# Athena.dr:                     .5
# Athena.window:                 hanning
# Athena.plot_multiplier:        1
# Athena.y_offset:               0.2
# ///
#------------------------
#   e         norm        nbkg        flat        fbkg        nder        nsec
  7600.0670      -0.21348619      -0.13486192E-01  -0.21348619      -0.21348619       0.12350446E-01  -0.52087969E-03
  7610.6410      -0.82892573E-01   0.11710742      -0.82892575E-01  -0.82892575E-01   0.68426639E-02  -0.38915381E-03
  7624.5560      -0.45916189E-01   0.15408381      -0.45916190E-01  -0.45916190E-01   0.28204581E-02  -0.21266341E-03
  7637.2000      -0.79840247E-02   0.19201598      -0.79840250E-02  -0.79840250E-02   0.11945364E-02  -0.12483213E-03
  7649.6990      -0.15881961E-01   0.18411804      -0.15881961E-01  -0.15881961E-01  -0.31819602E-03   0.10571697E-03
  7662.1990      -0.15938607E-01   0.18406139      -0.15938608E-01  -0.15938608E-01   0.38373549E-02   0.19969669E-04
  7674.7330       0.80182381E-01   0.28018238       0.80182384E-01   0.80182384E-01   0.18172467E-03  -0.29236216E-03
  7687.3310      -0.11371503E-01   0.18862850      -0.11371503E-01  -0.11371503E-01  -0.35102909E-02   0.86621784E-05
  7700.0100      -0.85472430E-02   0.19145276      -0.85472432E-02  -0.85472432E-02   0.40067855E-03   0.89025925E-03
  7700.3880      -0.61398430E-02   0.19386016      -0.61398432E-02  -0.61398432E-02   0.81138240E-02   0.63375864E-02
  7700.7190      -0.27945417E-02   0.19720546      -0.27945418E-02  -0.27945418E-02   0.48940273E-02  -0.19078493E-01
  7701.0710      -0.27972223E-02   0.19720278      -0.27972224E-02  -0.27972224E-02  -0.49167867E-02  -0.61140748E-02
  7701.4340      -0.63100442E-02   0.19368996      -0.63100444E-02  -0.63100444E-02   0.52246378E-03   0.14369335E-01
  7701.7980      -0.24173912E-02   0.19758261      -0.24173912E-02  -0.24173912E-02   0.55297201E-02  -0.46189271E-02
  7702.1550      -0.23231160E-02   0.19767688      -0.23231160E-02  -0.23231161E-02  -0.28077826E-02  -0.15697339E-01
  7702.5150      -0.44305713E-02   0.19556943      -0.44305715E-02  -0.44305715E-02  -0.57252719E-02   0.23784045E-02
  7702.8790      -0.64682128E-02   0.19353179      -0.64682130E-02  -0.64682130E-02  -0.10858178E-02   0.70357570E-02
  7703.2420      -0.52199609E-02   0.19478004      -0.52199610E-02  -0.52199610E-02  -0.61027657E-03   0.17847356E-02
  7703.6000      -0.69082223E-02   0.19309178      -0.69082225E-02  -0.69082225E-02   0.20097659E-03   0.10829229E-01
  7703.9610      -0.50754587E-02   0.19492454      -0.50754588E-02  -0.50754588E-02   0.71759391E-02   0.65380452E-02
  7704.3250      -0.17056664E-02   0.19829433      -0.17056665E-02  -0.17056665E-02   0.49410594E-02  -0.10814298E-01
  7704.6870      -0.14882496E-02   0.19851175      -0.14882496E-02  -0.14882496E-02  -0.67524147E-03  -0.12987196E-01
  7705.0200      -0.21749592E-02   0.19782504      -0.21749593E-02  -0.21749593E-02  -0.40850417E-02   0.46513689E-03
  7705.3810      -0.43232685E-02   0.19567673      -0.43232687E-02  -0.43232687E-02  -0.35243647E-03   0.28800937E-01
  7705.7490      -0.24318854E-02   0.19756811      -0.24318855E-02  -0.24318855E-02   0.16910841E-01   0.36395406E-01
  7706.1120       0.80385565E-02   0.20803856       0.80385568E-02   0.80385567E-02   0.26252606E-01   0.19270921E-01
  7706.4710       0.16522496E-01   0.21652250       0.16522496E-01   0.16522496E-01   0.30824446E-01   0.88012812E-02
  7706.8310       0.30201334E-01   0.23020133       0.30201334E-01   0.30201334E-01   0.32580727E-01  -0.74051310E-02
  7707.1960       0.40143523E-01   0.24014352       0.40143524E-01   0.40143524E-01   0.25455727E-01  -0.22092376E-01
  7707.5570       0.48682191E-01   0.24868219       0.48682192E-01   0.48682192E-01   0.16541662E-01  -0.29324579E-01
  7707.9150       0.52036978E-01   0.25203698       0.52036979E-01   0.52036979E-01   0.43713544E-02  -0.19600500E-01
  7708.2800       0.51842680E-01   0.25184268       0.51842682E-01   0.51842682E-01   0.23705005E-02  -0.86998076E-02
  7708.6460       0.53769814E-01   0.25376982       0.53769815E-01   0.53769815E-01  -0.19882049E-02  -0.16195258E-01
  7708.9820       0.50446960E-01   0.25044696       0.50446962E-01   0.50446962E-01  -0.89985708E-02   0.57368963E-02
  7709.2900       0.47974734E-01   0.24797474       0.47974736E-01   0.47974736E-01   0.17063563E-02   0.26157209E-01
  7709.5960       0.51494663E-01   0.25149466       0.51494665E-01   0.51494665E-01   0.70619555E-02  -0.77747202E-02
  7709.9030       0.52303713E-01   0.25230371       0.52303714E-01   0.52303714E-01  -0.30595472E-02  -0.30774603E-01
  7710.2110       0.49613042E-01   0.24961304       0.49613043E-01   0.49613043E-01  -0.11864425E-01  -0.10591461E-01
  7710.5140       0.45054549E-01   0.24505455       0.45054550E-01   0.45054550E-01  -0.95309298E-02   0.21550673E-01
  7710.8230       0.43780113E-01   0.24378011       0.43780114E-01   0.43780114E-01   0.13245862E-02   0.37602980E-01
  7711.1080       0.45841353E-01   0.24584135       0.45841354E-01   0.45841354E-01   0.12805240E-01   0.82350284E-02
  7711.4160       0.51373620E-01   0.25137362       0.51373621E-01   0.51373621E-01   0.62079580E-02  -0.23131373E-01
  7711.7250       0.49671663E-01   0.24967166       0.49671665E-01   0.49671665E-01  -0.14668170E-02  -0.10213705E-01
  7712.0290       0.50474461E-01   0.25047446       0.50474463E-01   0.50474463E-01  -0.53042922E-04  -0.36491555E-02
  7712.3330       0.49639413E-01   0.24963941       0.49639415E-01   0.49639415E-01  -0.36855035E-02   0.15527585E-01
  7712.6440       0.48207876E-01   0.24820788       0.48207878E-01   0.48207878E-01   0.94964220E-02   0.30028516E-01
  7712.9530       0.55527195E-01   0.25552720       0.55527196E-01   0.55527196E-01   0.14932176E-01   0.28000229E-01
  7713.2350       0.57032793E-01   0.25703279       0.57032794E-01   0.57032794E-01   0.26044557E-01   0.55674151E-01
  7713.5380       0.70763261E-01   0.27076326       0.70763263E-01   0.70763263E-01   0.47501554E-01   0.56541635E-01
  7713.8530       0.86388753E-01   0.28638876       0.86388756E-01   0.86388756E-01   0.60987287E-01   0.52515318E-01
  7714.1610       0.10875834       0.30875834       0.10875834       0.10875834       0.80218597E-01   0.24849435E-01
  7714.4700       0.13588363       0.33588363       0.13588363       0.13588363       0.76319389E-01  -0.44745895E-01
  7714.7770       0.15577108       0.35577109       0.15577109       0.15577109       0.52655126E-01  -0.67824636E-01
  7715.0770       0.16784529       0.36784529       0.16784529       0.16784529       0.35149835E-01  -0.10587215E-01
  7715.3860       0.17717733       0.37717734       0.17717734       0.17717734       0.46207512E-01   0.26448369E-01
  7715.6700       0.19524634       0.39524635       0.19524635       0.19524635       0.50833717E-01  -0.29695498E-01
  7715.9720       0.20696589       0.40696590       0.20696590       0.20696590       0.28805950E-01  -0.67979477E-01
  7716.1370       0.20869872       0.40869873       0.20869873       0.20869873       0.19087302E-01   0.37373829E-01
  7716.2550       0.21236760       0.41236760       0.21236760       0.21236760       0.39382744E-01   0.16095479
  7716.3670       0.21775675       0.41775676       0.21775676       0.21775676       0.56106904E-01   0.12915766
  7716.4990       0.22605768       0.42605769       0.22605769       0.22605769       0.70897213E-01   0.36764106E-01
  7716.6200       0.23569375       0.43569376       0.23569376       0.23569376       0.65408222E-01  -0.11286971
  7716.7330       0.24136321       0.44136321       0.24136321       0.24136321       0.44485701E-01  -0.68150844E-01
  7716.8670       0.24668172       0.44668172       0.24668172       0.24668172       0.48574964E-01  -0.26670244E-01
  7716.9880       0.25374982       0.45374983       0.25374983       0.25374983       0.37684789E-01  -0.63262786E-01
  7717.1010       0.25549996       0.45549997       0.25549997       0.25549997       0.33771472E-01   0.12344800
  7717.2330       0.26202383       0.46202384       0.26202384       0.26202384       0.67929548E-01   0.27774722
  7717.3500       0.27241441       0.47241442       0.27241442       0.27241442       0.10293053      -0.77247172E-01
  7717.4620       0.28559492       0.48559493       0.28559493       0.28559493       0.50239946E-01  -0.23947144
  7717.5920       0.28457248       0.48457249       0.28457249       0.28457249       0.44978441E-01   0.17865571
  7717.7100       0.29674958       0.49674959       0.29674959       0.29674959       0.94546561E-01   0.16087636
  7717.8420       0.30820912       0.50820913       0.30820913       0.30820913       0.85197531E-01   0.33352540E-01
  7717.9600       0.31804896       0.51804897       0.31804897       0.31804897       0.10288470       0.20576898
  7718.0740       0.33207837       0.53207838       0.33207838       0.33207838       0.13293593      -0.32270167E-01
  7718.2060       0.35075120       0.55075121       0.35075121       0.35075121       0.94946235E-01  -0.31970537
  7718.3280       0.35619472       0.55619473       0.35619473       0.35619473       0.51730768E-01   0.40382485E-01
  7718.4410       0.36290793       0.56290794       0.36290794       0.36290794       0.10443612       0.28116655
  7718.5730       0.38178156       0.58178158       0.38178158       0.38178158       0.12061657      -0.63578169E-01
  7718.6930       0.39330331       0.59330332       0.39330332       0.39330332       0.88414421E-01  -0.13885806
  7718.8050       0.40229371       0.60229372       0.40229372       0.40229372       0.88401504E-01   0.20954445
  7718.9360       0.41478487       0.61478489       0.41478489       0.41478489       0.13933372       0.36697098
  7719.0560       0.43726647       0.63726649       0.43726649       0.43726649       0.18051122      -0.40848045E-01
  7719.1680       0.45666348       0.65666349       0.45666349       0.45666349       0.12985698      -0.28809811
  7719.2990       0.46882172       0.66882173       0.46882173       0.46882173       0.11050338       0.44626544E-01
  7719.4200       0.48451033       0.68451034       0.48451034       0.48451034       0.14110286       0.14678754
  7719.5350       0.50212200       0.70212201       0.50212201       0.50212201       0.14514524       0.28284751E-01
  7719.6660       0.52021606       0.72021607       0.52021607       0.52021607       0.14806091       0.52445411E-01
  7719.7880       0.53958141       0.73958142       0.53958142       0.53958142       0.15841393       0.18027430
  7719.9010       0.55744333       0.75744335       0.55744335       0.55744335       0.19042537       0.12990457
  7720.0340       0.58642605       0.78642607       0.58642607       0.58642607       0.19037046       0.96584024E-01
  7720.1540       0.60560706       0.80560708       0.60560708       0.60560708       0.21486113      -0.68562667E-04
  7720.2670       0.63648869       0.83648871       0.63648871       0.63648871       0.19035448      -0.27357393
  7720.3970       0.65186320       0.85186322       0.65186322       0.65186322       0.14838267      -0.12408914
  7720.5160       0.67343598       0.87343600       0.67343600       0.67343600       0.15945628       0.14346485
  7720.6460       0.69156781       0.89156783       0.69156783       0.69156783       0.18410541       0.25955017
  7720.7660       0.71946233       0.91946235       0.71946235       0.71946235       0.22434383       0.99224240E-01
  7720.8790       0.74383992       0.94383995       0.74383995       0.74383995       0.20722466      -0.44102948E-01
  7721.0130       0.77064682       0.97064684       0.77064684       0.77064684       0.21345040      -0.58060226E-01
  7721.1330       0.79805632       0.99805635       0.79805635       0.79805635       0.19247736      -0.71738435E-01
  7721.2460       0.81549404        1.0154941       0.81549407       0.81549407       0.19673534       0.14111253
  7721.3790       0.84645322        1.0464532       0.84645324       0.84645324       0.22719104       0.20012227
  7721.5000       0.87320057        1.0732006       0.87313818       0.87313818       0.24756640      -0.23949761E-01
  7721.6120       0.90413619        2.2375997       0.90424848        2.0377119       0.22161075      -0.12031480
  7721.7440       0.92727359        2.2205532       0.92759174        2.0208713       0.21820959       0.16747993
  7721.8620       0.95868859        2.2054478       0.95919077        2.0059500       0.26348073      -0.11848954
  7721.9740       0.98787416        2.1912262       0.98855101        1.9919031       0.19095700      -0.55731869
  7722.1040        1.0049002        2.1748598        1.0057798        1.9757394       0.12860961       0.20080235E-01
  7722.2260        1.0202838        2.1596376        1.0213536        1.9607074       0.19601721       0.27767818
  7722.3580        1.0546886        2.1433164        1.0559643        1.9445921       0.19913987      -0.17214585
  7722.4790        1.0706662        2.1284905        1.0721306        1.9299549       0.15246431      -0.17728628
  7722.5930        1.0905177        2.1146401        1.0921599        1.9162823       0.15747759      -0.19352298
  7722.7240        1.1092482        2.0988649        1.1110947        1.9007114       0.10505118      -0.22464811
  7722.8460        1.1170956        2.0843081        1.1191324        1.8863448       0.10064162       0.16293213
  7722.9580        1.1327983        2.0710582        1.1350098        1.8732697       0.14317730       0.22281791
  7723.0510        1.1464470        2.0601386        1.1488035        1.8624951       0.14631929      -0.10869839
  7723.2130        1.1701097        2.0412952        1.1727189        1.8439044       0.11545921      -0.11916159
  7723.4060        1.1874350        2.0191395        1.1903451        1.8220497       0.10401693      -0.18733307E-01
  7723.6030        1.2106763        1.9968516        1.2138937        1.8000690       0.10815322      -0.50548543E-01
  7723.8000        1.2300474        1.9748916        1.2335720        1.7784162       0.84100804E-01  -0.11391176
  7724.0000        1.2440644        1.9529304        1.2479009        1.7567669       0.62930253E-01  -0.15286623
  7724.1980        1.2550936        1.9315169        1.2592389        1.7356621       0.23260046E-01  -0.15318148
  7724.3960        1.2532753        1.9104275        1.2577295        1.7148816       0.22703855E-02  -0.35544725E-01
  7724.5920        1.2559881        1.8898681        1.2607479        1.6946278       0.92554240E-02  -0.41648586E-01
  7724.7890        1.2569127        1.8695191        1.2619798        1.6745861      -0.14097509E-01  -0.10125600
  7725.0080        1.2501236        1.8472660        1.2555321        1.6526745      -0.32867072E-01  -0.23995444E-01
  7725.7230        1.2262149        1.7772737        1.2327385        1.5837973      -0.36509253E-01  -0.48242449E-02
  7726.5070        1.1953962        1.7051058        1.2031426        1.5128521      -0.40098615E-01   0.82671907E-03
  7727.3020        1.1628992        1.6366690        1.1718854        1.4456552      -0.35203864E-01   0.35107177E-02
  7728.0660        1.1405134        1.5752587        1.1506911        1.3854364      -0.34625406E-01   0.46319715E-02
  7728.8300        1.1099915        1.5179810        1.1213608        1.3293502      -0.28126212E-01   0.15597170E-01
  7729.5930        1.0975646        1.4647658        1.1101238        1.2773250      -0.10808528E-01   0.14957385E-01
  7730.3530        1.0935302        1.4155860        1.1072746        1.2293305      -0.53461144E-02   0.43223881E-02
  7731.1470        1.0892568        1.3681383        1.1042395        1.1831210      -0.40915367E-02   0.35491730E-02
  7731.9100        1.0871596        1.3261881        1.1033323        1.1423608       0.17994799E-03  -0.23367852E-02
  7732.6790        1.0895325        1.2873825        1.1069045        1.1047545      -0.76714917E-02  -0.52826509E-02
  7733.4410        1.0754146        1.2522336        1.0939750        1.0707940      -0.79077905E-02   0.47383559E-02
  7734.2140        1.0773940        1.2197974        1.0971599        1.0395633      -0.39811543E-03  -0.20752055E-02
  7734.9760        1.0748035        1.1908593        1.0957578        1.0118136      -0.11093231E-01  -0.91976118E-02
  7735.7750        1.0600775        1.1636051        1.0822779       0.98580548      -0.14755587E-01   0.70731413E-02
  7736.5390        1.0517405        1.1403600        1.0751324       0.96375189      -0.37911100E-04   0.63882154E-02
  7737.3090        1.0600193        1.1195760        1.0846121       0.94416875      -0.49560650E-02  -0.12670254E-01
  7738.0780        1.0441131        1.1013282        1.0699052       0.92712031      -0.19537432E-01  -0.77979171E-02
  7738.8440        1.0300294        1.0855059        1.0570161       0.91249259      -0.16925868E-01   0.46466355E-02
  7739.6160        1.0180811        1.0717967        1.0462718       0.89998734      -0.12390907E-01   0.73968586E-03
  7740.3880        1.0108978        1.0601922        1.0402925       0.88958688      -0.15783793E-01  -0.61115023E-02
  7741.1610       0.99369516        1.0505399        1.0242954       0.88114014      -0.21833178E-01  -0.54113340E-02
  7741.9520       0.97675070        1.0425527        1.0085846       0.87438652      -0.24247119E-01   0.13866747E-03
  7744.4520       0.91389789        1.0281647       0.94963065       0.86389746      -0.21376823E-01   0.16852514E-02
  7746.9690       0.86950318        1.0265860       0.90916137       0.86624420      -0.15792213E-01   0.18620343E-02
  7749.4530       0.83492103        1.0329544       0.87845318       0.87648651      -0.12064790E-01   0.10421511E-02
  7751.9350       0.80958944        1.0424619       0.85699242       0.88986489      -0.10616890E-01   0.91014699E-03
  7754.4550       0.78181535        1.0517060       0.83314844       0.90303906      -0.75122345E-02   0.21043979E-02
  7756.9490       0.77192309        1.0599706       0.82714574       0.91519327      -0.65439251E-04   0.26354693E-02
  7759.4300       0.78148979        1.0673456       0.84058172       0.92643753       0.55992255E-02   0.14899481E-02
  7761.9470       0.79990802        1.0739913       0.86292538       0.93700861       0.73813215E-02   0.10121176E-02
  7764.4680       0.81867689        1.0798300       0.88562591       0.94677895       0.10698274E-01   0.60821094E-03
  7766.9650       0.85359196        1.0848331       0.92443522       0.95567628       0.10433324E-01  -0.49794553E-04
  7769.4620       0.87078091        1.0890862       0.94551840       0.96382370       0.10449600E-01   0.11160511E-03
  7771.9870       0.90606985        1.0926513       0.98474525       0.97132670       0.10993805E-01  -0.10998000E-02
  7774.4880       0.92603577        1.0954798        1.0086116       0.97805560       0.49220052E-02  -0.18430574E-02
  7776.9970       0.93072910        1.0976411        1.0172179       0.98412988       0.17600871E-02  -0.64924296E-03
  7780.5620       0.93672654        1.0995995        1.0287752       0.99164814       0.97850352E-03  -0.79981410E-03
  7784.1490       0.93772735        1.1003216        1.0353702       0.99796436      -0.39601834E-02  -0.56733724E-03
  7787.6930       0.90848647        1.0998811        1.0116564        1.0030510      -0.30671783E-02   0.66306954E-03
  7791.2820       0.91584917        1.0983433        1.0246164        1.0071105       0.76949162E-03   0.19727425E-03
  7794.8620       0.91400296        1.0957923        1.0283534        1.0101427      -0.16529192E-02  -0.62457129E-03
  7798.4360       0.90402419        1.0923094        1.0239485        1.0122337      -0.36986914E-02  -0.23222525E-03
  7802.0150       0.88754622        1.0879616        1.0130522        1.0134676      -0.33140265E-02   0.88079198E-04
  7805.6140       0.88023610        1.0827997        1.0113550        1.0139185      -0.30664589E-02   0.11100531E-03
  7809.2040       0.86550144        1.0769398        1.0022192        1.0136575      -0.25160093E-02   0.44529994E-03
  7812.8090       0.86213342        1.0704196        1.0044734        1.0127596       0.13747414E-03  -0.38842555E-04
  7816.3810       0.86648810        1.0634084        1.0143988        1.0113191      -0.27947823E-02  -0.51594177E-03
  7819.9940       0.84205291        1.0558378       0.99559836        1.0093832      -0.35695675E-02   0.65754261E-04
  7823.6050       0.84070154        1.0478692       0.99987859        1.0070462      -0.23197735E-02  -0.12485000E-03
  7827.2230       0.82528326        1.0395617       0.99010282        1.0043812      -0.44721081E-02   0.34684115E-04
  7830.8140       0.80846211        1.0310748       0.97888207        1.0014947      -0.20697357E-02   0.72785685E-03
  7834.4380       0.81035012        1.0223457       0.98642194       0.99841745       0.77937908E-03  -0.75758764E-04
  7838.0600       0.81410949        1.0135365       0.99583006       0.99525701      -0.26186837E-02  -0.32313862E-03
  7841.6900       0.79135943        1.0047032       0.97874121       0.99208495      -0.15640222E-02   0.79309577E-03
  7845.3200       0.80275469       0.99594587       0.99579770       0.98898886       0.31391916E-02   0.12956512E-02
