# XDI/1.0 Athena/0.9.26
# Element.edge:                  K
# Element.symbol:                Co
# Column.1:                      energy eV
# Column.2:                      norm
# Column.3:                      nbkg
# Column.4:                      flat
# Column.5:                      fbkg
# Column.6:                      nder
# Column.7:                      nsec
# Athena.e0:                     7721.54
# Athena.eshift:                 0
# Athena.rbkg:                   1.0
# Athena.importance:             1
# Athena.standard:               None
# Athena.bkg_kweight:            3
# Athena.edge_step:              1.1933886
# Athena.fixed_step:             no
# Athena.pre_edge_range:         -82.964 -19.904
# Athena.pre_edge_line:          0.133731 + 0.0001973 * E
# Athena.normalization_range:    45 125.256
# Athena.post_edge_polynomial:   15.635778 - 0.00165578 * E + 0 * E^2 + 0 * E^3
# Athena.spline_range_energy:    0.000 125.180
# Athena.clamps:                 0 24
# Athena.spline_range_k:         0.000 5.732
# Athena.kweight:                2
# Athena.window:                 hanning
# Athena.phase_correction:       no
# Athena.k_range:                .4 5.35
# Athena.dk:                     .5
# Athena.r_range:                .4 5.1
# Athena.dr:                     .5
# Athena.window:                 hanning
# Athena.plot_multiplier:        1
# Athena.y_offset:               0.2
# ///
#------------------------
#   e         norm        nbkg        flat        fbkg        nder        nsec
  7600.0670      -0.21657318      -0.16573185E-01  -0.21657319      -0.21657319       0.12424177E-01  -0.52350493E-03
  7610.6410      -0.85199939E-01   0.11480006      -0.85199940E-01  -0.85199940E-01   0.68886354E-02  -0.38897365E-03
  7624.5560      -0.47877390E-01   0.15212261      -0.47877391E-01  -0.47877391E-01   0.28986008E-02  -0.20906859E-03
  7637.2000      -0.82159988E-02   0.19178400      -0.82159990E-02  -0.82159990E-02   0.13359827E-02  -0.12961202E-03
  7649.6990      -0.14286778E-01   0.18571322      -0.14286778E-01  -0.14286778E-01  -0.36023419E-03   0.96543293E-04
  7662.1990      -0.17221493E-01   0.18277851      -0.17221494E-01  -0.17221494E-01   0.37494684E-02   0.23562570E-04
  7674.7330       0.79577415E-01   0.27957742       0.79577416E-01   0.79577416E-01   0.22963119E-03  -0.28847321E-03
  7687.3310      -0.11450402E-01   0.18854960      -0.11450402E-01  -0.11450402E-01  -0.35004402E-02   0.78068456E-05
  7700.0100      -0.89032123E-02   0.19109679      -0.89032125E-02  -0.89032125E-02   0.42696483E-03   0.10126062E-02
  7700.3880      -0.58755224E-02   0.19412448      -0.58755225E-02  -0.58755225E-02   0.97211591E-02   0.50957054E-02
  7700.7190      -0.20109105E-02   0.19798909      -0.20109106E-02  -0.20109106E-02   0.40398199E-02  -0.23915752E-01
  7701.0710      -0.31163254E-02   0.19688367      -0.31163254E-02  -0.31163254E-02  -0.66132998E-02  -0.30357074E-02
  7701.4340      -0.67394199E-02   0.19326058      -0.67394200E-02  -0.67394200E-02   0.18692891E-02   0.18433870E-01
  7701.7980      -0.17573522E-02   0.19824265      -0.17573522E-02  -0.17573522E-02   0.67881236E-02  -0.76312135E-02
  7702.1550      -0.18451828E-02   0.19815482      -0.18451828E-02  -0.18451828E-02  -0.36328158E-02  -0.19319195E-01
  7702.5150      -0.43620811E-02   0.19563792      -0.43620812E-02  -0.43620812E-02  -0.70637391E-02   0.12377957E-03
  7702.8790      -0.69593299E-02   0.19304067      -0.69593300E-02  -0.69593300E-02  -0.35431994E-02   0.10488899E-01
  7703.2420      -0.69379871E-02   0.19306201      -0.69379872E-02  -0.69379872E-02   0.56169024E-03   0.88983400E-02
  7703.6000      -0.65543512E-02   0.19344565      -0.65543513E-02  -0.65543513E-02   0.28725037E-02   0.92009644E-02
  7703.9610      -0.48726569E-02   0.19512734      -0.48726570E-02  -0.48726570E-02   0.71771836E-02   0.26360406E-02
  7704.3250      -0.13508931E-02   0.19864911      -0.13508931E-02  -0.13508931E-02   0.47836332E-02  -0.11473715E-01
  7704.6870      -0.13997392E-02   0.19860026      -0.13997393E-02  -0.13997393E-02  -0.11527338E-02  -0.13991465E-01
  7705.0200      -0.21520430E-02   0.19784796      -0.21520431E-02  -0.21520431E-02  -0.49404349E-02   0.29207045E-04
  7705.3810      -0.48284010E-02   0.19517160      -0.48284011E-02  -0.48284011E-02  -0.11324641E-02   0.31981331E-01
  7705.7490      -0.29776094E-02   0.19702239      -0.29776094E-02  -0.29776094E-02   0.18373955E-01   0.36944727E-01
  7706.1120       0.86029604E-02   0.20860296       0.86029606E-02   0.86029606E-02   0.25874132E-01   0.14473765E-01
  7706.4710       0.15703514E-01   0.21570351       0.15703514E-01   0.15703514E-01   0.28824013E-01   0.88483669E-02
  7706.8310       0.29327426E-01   0.22932743       0.29327427E-01   0.29327427E-01   0.32236107E-01  -0.48034648E-02
  7707.1960       0.39074691E-01   0.23907469       0.39074692E-01   0.39074692E-01   0.25341501E-01  -0.20849728E-01
  7707.5570       0.47725356E-01   0.24772536       0.47725357E-01   0.47725357E-01   0.17099205E-01  -0.28741866E-01
  7707.9150       0.51369020E-01   0.25136902       0.51369021E-01   0.51369021E-01   0.46760998E-02  -0.20776066E-01
  7708.2800       0.51106176E-01   0.25110618       0.51106177E-01   0.51106177E-01   0.20781091E-02  -0.82808037E-02
  7708.6460       0.52888117E-01   0.25288812       0.52888118E-01   0.52888118E-01  -0.13771677E-02  -0.13158640E-01
  7708.9820       0.50139405E-01   0.25013941       0.50139406E-01   0.50139406E-01  -0.71592561E-02   0.82499657E-02
  7709.2900       0.48277557E-01   0.24827756       0.48277557E-01   0.48277557E-01   0.39358102E-02   0.21857269E-01
  7709.5960       0.52555992E-01   0.25255599       0.52555993E-01   0.52555993E-01   0.62611068E-02  -0.15931540E-01
  7709.9030       0.52115615E-01   0.25211562       0.52115616E-01   0.52115616E-01  -0.58302235E-02  -0.31074654E-01
  7710.2110       0.48970405E-01   0.24897041       0.48970406E-01   0.48970406E-01  -0.12849806E-01  -0.42709412E-02
  7710.5140       0.44264384E-01   0.24426438       0.44264385E-01   0.44264385E-01  -0.84397686E-02   0.20332777E-01
  7710.8230       0.43805266E-01   0.24380527       0.43805267E-01   0.43805267E-01  -0.40614620E-03   0.31719910E-01
  7711.1080       0.44023133E-01   0.24402313       0.44023134E-01   0.44023134E-01   0.10401858E-01   0.11523934E-01
  7711.4160       0.49973568E-01   0.24997357       0.49973569E-01   0.49973569E-01   0.64275466E-02  -0.25852524E-01
  7711.7250       0.47988929E-01   0.24798893       0.47988930E-01   0.47988930E-01  -0.55491492E-02  -0.11304378E-01
  7712.0290       0.46571940E-01   0.24657194       0.46571941E-01   0.46571941E-01  -0.50203708E-03  -0.18602437E-02
  7712.3330       0.47683691E-01   0.24768369       0.47683691E-01   0.47683691E-01  -0.66801773E-02   0.69140916E-02
  7712.6440       0.42463631E-01   0.24246363       0.42463631E-01   0.42463631E-01   0.37501293E-02   0.43595574E-01
  7712.9530       0.50008771E-01   0.25000877       0.50008772E-01   0.50008772E-01   0.20349078E-01   0.38262089E-01
  7713.2350       0.54489936E-01   0.25448994       0.54489937E-01   0.54489937E-01   0.26363024E-01   0.44725793E-01
  7713.5380       0.65431140E-01   0.26543114       0.65431141E-01   0.65431141E-01   0.46513667E-01   0.58560285E-01
  7713.8530       0.83235382E-01   0.28323538       0.83235384E-01   0.83235384E-01   0.62553280E-01   0.45218023E-01
  7714.1610       0.10440183       0.30440184       0.10440184       0.10440184       0.74684496E-01   0.10864573E-01
  7714.4700       0.12931572       0.32931572       0.12931572       0.12931572       0.69256722E-01  -0.47518892E-01
  7714.7770       0.14706397       0.34706398       0.14706398       0.14706398       0.45412858E-01  -0.49185329E-01
  7715.0770       0.15688132       0.35688132       0.15688132       0.15688132       0.39401227E-01   0.13227290E-01
  7715.3860       0.17105932       0.37105932       0.17105932       0.17105932       0.53468277E-01   0.85439329E-02
  7715.6700       0.18858801       0.38858801       0.18858801       0.18858801       0.44467779E-01  -0.57336898E-01
  7715.9720       0.19711744       0.39711744       0.19711744       0.19711744       0.19868855E-01  -0.43505568E-01
  7716.1370       0.19786676       0.39786677       0.19786677       0.19786677       0.24150679E-01   0.48996194E-01
  7716.2550       0.20395208       0.40395209       0.20395209       0.20395209       0.33734778E-01   0.47255175E-01
  7716.3670       0.20562576       0.40562577       0.20562577       0.20562577       0.35019369E-01   0.18218004
  7716.4990       0.21249681       0.41249681       0.21249681       0.21249681       0.78186708E-01   0.16927717
  7716.6200       0.22540700       0.42540700       0.22540700       0.22540700       0.77846493E-01  -0.81700248E-01
  7716.7330       0.23071289       0.43071289       0.23071289       0.23071289       0.59068850E-01  -0.14754621
  7716.8670       0.23999701       0.43999701       0.23999701       0.23999701       0.41402579E-01  -0.83399939E-01
  7716.9880       0.24127055       0.44127055       0.24127055       0.24127055       0.37801865E-01   0.58029853E-01
  7717.1010       0.24884264       0.44884265       0.24884265       0.24884265       0.54981565E-01  -0.25282921E-01
  7717.2330       0.25474103       0.45474103       0.25474103       0.25474103       0.31607549E-01   0.33711492E-01
  7717.3500       0.25671292       0.45671293       0.25671293       0.25671293       0.63375726E-01   0.22043087
  7717.4620       0.26925407       0.46925408       0.26925408       0.26925408       0.82086218E-01  -0.32012106E-01
  7717.5920       0.27657779       0.47657779       0.27657779       0.27657779       0.55628797E-01   0.14493096E-01
  7717.7100       0.28305001       0.48305002       0.28305002       0.28305002       0.85680505E-01   0.21190176
  7717.8420       0.29799791       0.49799792       0.29799792       0.29799792       0.10860424       0.22776694E-01
  7717.9600       0.31020107       0.51020108       0.31020108       0.31020108       0.91374679E-01  -0.10334662
  7718.0740       0.31919684       0.51919685       0.31919685       0.31919685       0.84627821E-01   0.28414159E-01
  7718.2060       0.33101951       0.53101952       0.33101952       0.33101952       0.98364562E-01   0.40787388E-01
  7718.3280       0.34418144       0.54418144       0.34418144       0.34418144       0.94987818E-01  -0.80705901E-01
  7718.4410       0.35334165       0.55334166       0.35334166       0.35334166       0.79398675E-01  -0.11013070
  7718.5730       0.36363411       0.56363412       0.36363412       0.36363412       0.68005796E-01   0.10490170
  7718.6930       0.37047911       0.57047912       0.37047912       0.37047912       0.10583390       0.33129944
  7718.8050       0.38818758       0.58818759       0.38818759       0.38818759       0.14486727       0.46573765E-02
  7718.9360       0.40568186       0.60568187       0.40568187       0.40568187       0.10696565      -0.88199264E-01
  7719.0560       0.41503596       0.61503596       0.41503596       0.41503596       0.12272925       0.69196588E-01
  7719.1680       0.43415504       0.63415505       0.43415505       0.43415505       0.12301925       0.50670826E-01
  7719.2990       0.44492963       0.64492964       0.44492964       0.44492964       0.13504226       0.29048919
  7719.4200       0.46818569       0.66818570       0.46818570       0.46818570       0.19622253       0.88602953E-01
  7719.5350       0.49123815       0.69123816       0.49123816       0.49123816       0.15595256      -0.28695189
  7719.6660       0.50655002       0.70655003       0.50655003       0.50655003       0.12563236      -0.16825630E-01
  7719.7880       0.52302314       0.72302315       0.52302315       0.52302315       0.15169567       0.14110302
  7719.9010       0.54219851       0.74219852       0.54219852       0.54219852       0.15879157       0.16112523
  7720.0340       0.56208587       0.76208588       0.56208588       0.56208588       0.19133248       0.19664008
  7720.1540       0.59060562       0.79060564       0.59060564       0.59060564       0.20854151       0.74034981E-02
  7720.2670       0.61067604       0.81067605       0.61067605       0.61067605       0.19305749      -0.97596918E-01
  7720.3970       0.63751860       0.83751861       0.63751861       0.63751861       0.18482546      -0.95477450E-01
  7720.5160       0.65669758       0.85669759       0.65669759       0.65669759       0.16928361      -0.44834645E-01
  7720.6460       0.67967021       0.87967023       0.67967023       0.67967023       0.17366164       0.15755107
  7720.7660       0.70011299       0.90011300       0.70011300       0.70011300       0.20867138       0.24994980
  7720.8790       0.72829065       0.92829066       0.72829066       0.72829066       0.23189994      -0.57166507E-02
  7721.0130       0.75739227       0.95739229       0.75739229       0.75739229       0.20725936      -0.20949392
  7721.1330       0.78093452       0.98093454       0.78093454       0.78093454       0.17868848      -0.94419499E-01
  7721.2460       0.79902669       0.99902671       0.79902671       0.79902671       0.18525962       0.19411510
  7721.3790       0.82650839        1.0265084       0.82650841       0.82650841       0.22644080       0.28905710
  7721.5000       0.85654265        1.0565427       0.85648054       0.85648054       0.25868013       0.87449155E-01
  7721.6120       0.88678086        2.2486743       0.88689266        2.0487861       0.24681645      -0.17567079
  7721.7440       0.91676587        2.2314637       0.91708264        2.0317804       0.21581645      -0.46583573E-04
  7721.8620       0.94073497        2.2162128       0.94123497        2.0167127       0.24680481      -0.95128529E-01
  7721.9740       0.97353097        2.2018541       0.97420488        2.0025280       0.19393689      -0.38338878
  7722.1040       0.98766770        2.1853298       0.98854348        1.9862056       0.15402472       0.73192166E-01
  7722.2260        1.0123452        2.1699606        1.0134104        1.9710258       0.21238132       0.22755882
  7722.3580        1.0416126        2.1534818        1.0428827        1.9547519       0.21182466      -0.12723572
  7722.4790        1.0659368        2.1385126        1.0673949        1.9399706       0.18019068      -0.27610563
  7722.5930        1.0839574        2.1245283        1.0855925        1.9261634       0.14693984      -0.32571505
  7722.7240        1.1019371        2.1086004        1.1037756        1.9104389       0.10039049      -0.13705158
  7722.8460        1.1093562        2.0939027        1.1113841        1.8959306       0.11226579       0.28870853
  7722.9580        1.1282073        2.0805245        1.1304092        1.8827263       0.16794829       0.21280316
  7723.0510        1.1437856        2.0694990        1.1461318        1.8718453       0.15589044      -0.17687286
  7723.2130        1.1679594        2.0504728        1.1705572        1.8530706       0.12284571      -0.12036792
  7723.4060        1.1873958        2.0281020        1.1902933        1.8309995       0.11315983       0.51449514E-02
  7723.6030        1.2120917        2.0055974        1.2152951        1.8088008       0.12485224      -0.33513107E-01
  7723.8000        1.2365876        1.9834238        1.2400969        1.7869331       0.99955662E-01  -0.17264566
  7724.0000        1.2517741        1.9612486        1.2555940        1.7650684       0.56311913E-01  -0.21941095
  7724.1980        1.2589997        1.9396262        1.2631270        1.7437535       0.12630106E-01  -0.12603452
  7724.3960        1.2567756        1.9183309        1.2612104        1.7227657       0.64022441E-02   0.13844232E-01
  7724.5920        1.2615222        1.8975705        1.2662613        1.7023096       0.18084733E-01  -0.49799250E-01
  7724.7890        1.2638829        1.8770224        1.2689279        1.6820674      -0.13168861E-01  -0.12423759
  7725.0080        1.2560440        1.8545512        1.2614290        1.6599362      -0.33598106E-01  -0.28693883E-01
  7725.7230        1.2325023        1.7838709        1.2389976        1.5903662      -0.39968947E-01  -0.65921918E-02
  7726.5070        1.1961305        1.7109902        1.2038432        1.5187029      -0.43479801E-01   0.32865478E-02
  7727.3020        1.1638477        1.6418735        1.1727949        1.4508206      -0.34779489E-01   0.52320057E-02
  7728.0660        1.1419093        1.5798495        1.1520428        1.3899830      -0.35323105E-01   0.30153515E-02
  7728.8300        1.1098740        1.5219955        1.1211938        1.3333154      -0.30172032E-01   0.15763304E-01
  7729.5930        1.0958366        1.4682415        1.1083412        1.2807461      -0.11252539E-01   0.18348967E-01
  7730.3530        1.0927364        1.4185598        1.1064211        1.2322446      -0.22265549E-02   0.65521547E-02
  7731.1470        1.0923765        1.3706239        1.1072942        1.1855416      -0.10704909E-02   0.10043472E-02
  7731.9100        1.0910696        1.3282382        1.1071720        1.1443406      -0.66278624E-03  -0.51197993E-02
  7732.6790        1.0913611        1.2890257        1.1086577        1.1063222      -0.89140234E-02  -0.53196701E-02
  7733.4410        1.0774222        1.2535043        1.0959020        1.0719840      -0.88072012E-02   0.63034753E-02
  7734.2140        1.0778421        1.2207200        1.0975222        1.0404001       0.76181119E-03  -0.58491946E-03
  7734.9760        1.0785916        1.1914673        1.0994549        1.0123306      -0.97050525E-02  -0.10575665E-01
  7735.7750        1.0626925        1.1639121        1.0847965       0.98601607      -0.15746801E-01   0.48248928E-02
  7736.5390        1.0539794        1.1404058        1.0772697       0.96369608      -0.21637452E-02   0.63484754E-02
  7737.3090        1.0593733        1.1193836        1.0838593       0.94386951      -0.60082399E-02  -0.12051451E-01
  7738.0780        1.0447327        1.1009218        1.0704127       0.92660189      -0.20710928E-01  -0.80140668E-02
  7738.8440        1.0275820        1.0849090        1.0544515       0.91177845      -0.18309832E-01   0.64705556E-02
  7739.6160        1.0165722        1.0710293        1.0446404       0.89909758      -0.10759213E-01   0.27205358E-02
  7740.3880        1.0109698        1.0592750        1.0402368       0.88854203      -0.14109325E-01  -0.67707183E-02
  7741.1610       0.99477325        1.0494921        1.0252406       0.87995937      -0.21219973E-01  -0.66060937E-02
  7741.9520       0.97778177        1.0413899        1.0094773       0.87308547      -0.24441256E-01  -0.12040099E-03
  7744.4520       0.91433708        1.0267493       0.94991463       0.86232686      -0.21616213E-01   0.16975254E-02
  7746.9690       0.86933323        1.0250543       0.90881916       0.86454018      -0.15924771E-01   0.18030458E-02
  7749.4530       0.83469730        1.0314031       0.87804036       0.87474614      -0.12599181E-01   0.10695121E-02
  7751.9350       0.80676570        1.0409457       0.85396279       0.88814280      -0.10613574E-01   0.10013723E-02
  7754.4550       0.78160820        1.0502501       0.83271833       0.90136018      -0.75903163E-02   0.19667926E-02
  7756.9490       0.76870785        1.0585930       0.82369063       0.91357577      -0.75207586E-03   0.25733905E-02
  7759.4300       0.77786663        1.0660625       0.83670189       0.92489774       0.52123015E-02   0.17362527E-02
  7761.9470       0.79475893        1.0728192       0.85750257       0.93556280       0.79257154E-02   0.11916088E-02
  7764.4680       0.81779638        1.0787826       0.88445460       0.94544079       0.11215627E-01   0.56794307E-03
  7766.9650       0.85103895        1.0839207       0.92157449       0.95445627       0.10775654E-01  -0.45066699E-04
  7769.4620       0.87160999        1.0883187       0.94602286       0.96273154       0.10990564E-01  -0.52846389E-04
  7771.9870       0.90623356        1.0920383       0.98456722       0.97037190       0.10510259E-01  -0.11395217E-02
  7774.4880       0.92443456        1.0950259        1.0066518       0.97724306       0.52633276E-02  -0.16333129E-02
  7776.9970       0.93260283        1.0973513        1.0187160       0.98346445       0.23273615E-02  -0.74602714E-03
  7780.5620       0.93857095        1.0995470        1.0302198       0.99119585       0.73195878E-03  -0.90145537E-03
  7784.1490       0.93783780        1.1005080        1.0350565       0.99772666      -0.41198473E-02  -0.55494999E-03
  7787.6930       0.90919232        1.1002986        1.0119141        1.0030203      -0.32253896E-02   0.68627381E-03
  7791.2820       0.91483110        1.0989846        1.0231259        1.0072793       0.77534379E-03   0.25745295E-03
  7794.8620       0.91475076        1.0966412        1.0286045        1.0104950      -0.13797094E-02  -0.61184397E-03
  7798.4360       0.90496065        1.0933452        1.0243641        1.0127486      -0.36017880E-02  -0.25717115E-03
  7802.0150       0.88898717        1.0891586        1.0139481        1.0141194      -0.32192546E-02   0.70491163E-04
  7805.6140       0.88185285        1.0841275        1.0124022        1.0146769      -0.30958024E-02   0.10573277E-03
  7809.2040       0.86673145        1.0783616        1.0028553        1.0144854      -0.24591417E-02   0.45911834E-03
  7812.8090       0.86415932        1.0718937        1.0058810        1.0136154       0.20755406E-03  -0.36823120E-04
  7816.3810       0.86822106        1.0648876        1.0154893        1.0121559      -0.27234213E-02  -0.55615981E-03
  7819.9940       0.84459154        1.0572694       0.99747006        1.0101479      -0.37884542E-02   0.15794763E-04
  7823.6050       0.84085327        1.0491951       0.99933892        1.0076807      -0.26093199E-02  -0.83933778E-04
  7827.2230       0.82572877        1.0407179       0.98983241        1.0048215      -0.43952115E-02   0.48506482E-04
  7830.8140       0.80916819        1.0319941       0.97884791        1.0016738      -0.22596367E-02   0.73647934E-03
  7834.4380       0.80942549        1.0229515       0.98473252       0.99825854       0.91848694E-03  -0.41142844E-04
  7838.0600       0.81582355        1.0137489       0.99675479       0.99468012      -0.25577577E-02  -0.38956974E-03
  7841.6900       0.79087663        1.0044355       0.97744451       0.99100338      -0.19066728E-02   0.77366960E-03
  7845.3200       0.80198110       0.99510680       0.99418561       0.98731130       0.30590836E-02   0.13679770E-02
