# XDI/1.0 Athena/0.9.26
# Element.edge:                  K
# Element.symbol:                Co
# Column.1:                      energy eV
# Column.2:                      norm
# Column.3:                      nbkg
# Column.4:                      flat
# Column.5:                      fbkg
# Column.6:                      nder
# Column.7:                      nsec
# Athena.e0:                     7721.54
# Athena.eshift:                 0
# Athena.rbkg:                   1.0
# Athena.importance:             1
# Athena.standard:               None
# Athena.bkg_kweight:            3
# Athena.edge_step:              1.1953592
# Athena.fixed_step:             no
# Athena.pre_edge_range:         -82.964 -19.904
# Athena.pre_edge_line:          0.292261 + 0.000176551 * E
# Athena.normalization_range:    45 125.256
# Athena.post_edge_polynomial:   15.679164 - 0.00166137 * E + 0 * E^2 + 0 * E^3
# Athena.spline_range_energy:    0.000 125.180
# Athena.clamps:                 0 24
# Athena.spline_range_k:         0.000 5.732
# Athena.kweight:                2
# Athena.window:                 hanning
# Athena.phase_correction:       no
# Athena.k_range:                .4 5.35
# Athena.dk:                     .5
# Athena.r_range:                .4 5.1
# Athena.dr:                     .5
# Athena.window:                 hanning
# Athena.plot_multiplier:        1
# Athena.y_offset:               0.2
# ///
#------------------------
#   e         norm        nbkg        flat        fbkg        nder        nsec
  7600.0670      -0.21490084      -0.14900845E-01  -0.21490085      -0.21490085       0.12133199E-01  -0.50448089E-03
  7610.6410      -0.86604391E-01   0.11339561      -0.86604394E-01  -0.86604394E-01   0.67988182E-02  -0.37378944E-03
  7624.5560      -0.48404578E-01   0.15159542      -0.48404580E-01  -0.48404580E-01   0.29794694E-02  -0.20607151E-03
  7637.2000      -0.74726620E-02   0.19252734      -0.74726622E-02  -0.74726622E-02   0.13257650E-02  -0.13069553E-03
  7649.6990      -0.15070868E-01   0.18492913      -0.15070868E-01  -0.15070868E-01  -0.30660823E-03   0.91922446E-04
  7662.1990      -0.15137561E-01   0.18486244      -0.15137562E-01  -0.15137562E-01   0.36237343E-02   0.19838314E-04
  7674.7330       0.75645696E-01   0.27564570       0.75645698E-01   0.75645698E-01   0.19002412E-03  -0.27704361E-03
  7687.3310      -0.10361875E-01   0.18963812      -0.10361875E-01  -0.10361875E-01  -0.33389257E-02   0.60899284E-05
  7700.0100      -0.87523294E-02   0.19124767      -0.87523297E-02  -0.87523297E-02   0.34395924E-03   0.10157857E-02
  7700.3880      -0.58707991E-02   0.19412920      -0.58707993E-02  -0.58707993E-02   0.99241880E-02   0.58951064E-02
  7700.7190      -0.17160801E-02   0.19828392      -0.17160801E-02  -0.17160801E-02   0.45235897E-02  -0.24047952E-01
  7701.0710      -0.27811873E-02   0.19721881      -0.27811874E-02  -0.27811874E-02  -0.65005635E-02  -0.50515351E-02
  7701.4340      -0.63639830E-02   0.19363602      -0.63639832E-02  -0.63639832E-02   0.91174208E-03   0.16821871E-01
  7701.7980      -0.21183508E-02   0.19788165      -0.21183509E-02  -0.21183509E-02   0.57289366E-02  -0.45191503E-02
  7702.1550      -0.22334196E-02   0.19776658      -0.22334197E-02  -0.22334197E-02  -0.23465653E-02  -0.16140294E-01
  7702.5150      -0.38008382E-02   0.19619916      -0.38008383E-02  -0.38008383E-02  -0.58436542E-02  -0.92277295E-03
  7702.8790      -0.64642253E-02   0.19353577      -0.64642255E-02  -0.64642255E-02  -0.30146529E-02   0.60718783E-02
  7703.2420      -0.59924908E-02   0.19400751      -0.59924910E-02  -0.59924910E-02  -0.14293987E-02   0.81722995E-02
  7703.6000      -0.74948217E-02   0.19250518      -0.74948220E-02  -0.74948220E-02   0.28775750E-02   0.13729223E-01
  7703.9610      -0.39235144E-02   0.19607649      -0.39235145E-02  -0.39235145E-02   0.84419127E-02   0.16532318E-02
  7704.3250      -0.13744350E-02   0.19862556      -0.13744350E-02  -0.13744350E-02   0.40761681E-02  -0.14468888E-01
  7704.6870      -0.96421632E-03   0.19903578      -0.96421635E-03  -0.96421634E-03  -0.20624999E-02  -0.13184425E-01
  7705.0200      -0.28078724E-02   0.19719213      -0.28078725E-02  -0.28078725E-02  -0.50870074E-02   0.46847283E-02
  7705.3810      -0.44945995E-02   0.19550540      -0.44945996E-02  -0.44945996E-02   0.11887016E-02   0.29767231E-01
  7705.7490      -0.19413090E-02   0.19805869      -0.19413090E-02  -0.19413090E-02   0.16613304E-01   0.30897003E-01
  7706.1120       0.76497259E-02   0.20764973       0.76497261E-02   0.76497262E-02   0.23774411E-01   0.16112202E-01
  7706.4710       0.15223816E-01   0.21522382       0.15223816E-01   0.15223816E-01   0.28246314E-01   0.10617763E-01
  7706.8310       0.27958826E-01   0.22795883       0.27958827E-01   0.27958827E-01   0.31408582E-01  -0.33826986E-02
  7707.1960       0.37995038E-01   0.23799504       0.37995039E-01   0.37995039E-01   0.25793858E-01  -0.17367529E-01
  7707.5570       0.46685166E-01   0.24668517       0.46685168E-01   0.46685168E-01   0.18799756E-01  -0.24980580E-01
  7707.9150       0.51512062E-01   0.25151206       0.51512064E-01   0.51512064E-01   0.78328206E-02  -0.21338461E-01
  7708.2800       0.52348296E-01   0.25234830       0.52348297E-01   0.52348297E-01   0.33720484E-02  -0.11146013E-01
  7708.6460       0.53977030E-01   0.25397703       0.53977032E-01   0.53977032E-01  -0.31491506E-03  -0.13518074E-01
  7708.9820       0.52127225E-01   0.25212723       0.52127227E-01   0.52127227E-01  -0.61176398E-02   0.30809402E-02
  7709.2900       0.50037270E-01   0.25003727       0.50037271E-01   0.50037271E-01   0.16692104E-02   0.21166969E-01
  7709.5960       0.53152120E-01   0.25315212       0.53152122E-01   0.53152122E-01   0.68788791E-02  -0.12030730E-01
  7709.9030       0.54254023E-01   0.25425402       0.54254024E-01   0.54254024E-01  -0.57056272E-02  -0.36544469E-01
  7710.2110       0.49643160E-01   0.24964316       0.49643161E-01   0.49643161E-01  -0.15595970E-01  -0.67515111E-02
  7710.5140       0.44724885E-01   0.24472489       0.44724887E-01   0.44724887E-01  -0.98308005E-02   0.23050083E-01
  7710.8230       0.43626710E-01   0.24362671       0.43626711E-01   0.43626711E-01  -0.14893189E-02   0.29051734E-01
  7711.1080       0.43840230E-01   0.24384023       0.43840231E-01   0.43840231E-01   0.74259295E-02   0.65963065E-02
  7711.4160       0.48030286E-01   0.24803029       0.48030288E-01   0.48030288E-01   0.24222909E-02  -0.22134867E-01
  7711.7250       0.45334783E-01   0.24533478       0.45334785E-01   0.45334785E-01  -0.62312835E-02  -0.11356766E-01
  7712.0290       0.44210509E-01   0.24421051       0.44210511E-01   0.44210511E-01  -0.45394066E-02  -0.43768741E-02
  7712.3330       0.42574824E-01   0.24257483       0.42574825E-01   0.42574826E-01  -0.88924230E-02   0.14728623E-01
  7712.6440       0.38741669E-01   0.23874167       0.38741670E-01   0.38741670E-01   0.45186964E-02   0.38534497E-01
  7712.9530       0.45376416E-01   0.24537642       0.45376417E-01   0.45376417E-01   0.14998965E-01   0.28511448E-01
  7713.2350       0.47606057E-01   0.24760606       0.47606059E-01   0.47606059E-01   0.21368962E-01   0.45892650E-01
  7713.5380       0.57877259E-01   0.25787726       0.57877261E-01   0.57877261E-01   0.41846165E-01   0.61812837E-01
  7713.8530       0.73466988E-01   0.27346699       0.73466990E-01   0.73466990E-01   0.59569296E-01   0.49304833E-01
  7714.1610       0.94988930E-01   0.29498893       0.94988933E-01   0.94988933E-01   0.72563076E-01   0.13911752E-01
  7714.4700       0.11823841       0.31823841       0.11823841       0.11823841       0.68152846E-01  -0.36011735E-01
  7714.7770       0.13697108       0.33697109       0.13697109       0.13697109       0.50379847E-01  -0.56954376E-01
  7715.0770       0.14881897       0.34881898       0.14881898       0.14881898       0.33581540E-01  -0.11081209E-01
  7715.3860       0.15742224       0.35742225       0.15742225       0.15742225       0.43631391E-01   0.27614667E-01
  7715.6700       0.17469239       0.37469239       0.17469239       0.17469239       0.49957038E-01  -0.30185340E-01
  7715.9720       0.18669707       0.38669707       0.18669707       0.18669707       0.25942782E-01  -0.87510853E-01
  7716.1370       0.18680767       0.38680767       0.18680767       0.18680767       0.90894691E-02   0.44624698E-01
  7716.2550       0.18926938       0.38926939       0.18926939       0.18926939       0.38571571E-01   0.20147675
  7716.3670       0.19567913       0.39567914       0.19567914       0.19567914       0.55429121E-01   0.83852558E-01
  7716.4990       0.20279409       0.40279410       0.20279410       0.20279410       0.59031596E-01   0.46288131E-01
  7716.6200       0.21061412       0.41061413       0.21061413       0.21061413       0.67140018E-01  -0.72680018E-01
  7716.7330       0.21850485       0.41850486       0.21850486       0.21850486       0.42024471E-01  -0.14552020
  7716.8670       0.22099417       0.42099417       0.22099417       0.22099417       0.31196527E-01  -0.12196467E-01
  7716.9880       0.22645997       0.42645998       0.22645998       0.22645998       0.38914372E-01   0.28695428E-01
  7717.1010       0.23010013       0.43010014       0.23010014       0.23010014       0.37911257E-01   0.66409901E-01
  7717.2330       0.23574823       0.43574823       0.23574823       0.23574823       0.55184798E-01   0.20531818
  7717.3500       0.24384114       0.44384115       0.24384115       0.24384115       0.89035484E-01  -0.24913262E-01
  7717.4620       0.25613735       0.45613736       0.25613736       0.25613736       0.49479661E-01  -0.20495488
  7717.5920       0.25581522       0.45581523       0.25581523       0.25581523       0.39436402E-01   0.15729041
  7717.7100       0.26591758       0.46591759       0.26591759       0.26591759       0.88487683E-01   0.17328729
  7717.8420       0.27793714       0.47793715       0.27793715       0.27793715       0.82758225E-01  -0.62373542E-01
  7717.9600       0.28660714       0.48660715       0.28660715       0.28660715       0.72894297E-01   0.10430356
  7718.0740       0.29484862       0.49484863       0.29484863       0.29484863       0.10695665       0.11678554
  7718.2060       0.31291847       0.51291848       0.31291848       0.31291848       0.10162354      -0.17807839
  7718.3280       0.32066100       0.52066101       0.32066101       0.32066101       0.61724739E-01  -0.23360879E-01
  7718.4410       0.32742379       0.52742380       0.32742380       0.32742380       0.96133734E-01   0.17941393
  7718.5730       0.34421376       0.54421378       0.34421378       0.34421378       0.10568115      -0.12010818
  7718.6930       0.35405544       0.55405545       0.35405545       0.35405545       0.65866472E-01  -0.79546558E-01
  7718.8050       0.35949479       0.55949480       0.35949480       0.35949480       0.87226350E-01   0.33598719
  7718.9360       0.37525144       0.57525145       0.37525145       0.37525145       0.14751136       0.28721456
  7719.0560       0.39652014       0.59652015       0.39652015       0.39652015       0.15931721      -0.11515884
  7719.1680       0.41221303       0.61221305       0.41221305       0.41221305       0.12079451      -0.21805274
  7719.2990       0.42587320       0.62587322       0.42587322       0.42587322       0.10633039       0.10107715
  7719.4200       0.43900829       0.63900830       0.43900830       0.43900830       0.14626595       0.16137776
  7719.5350       0.46039197       0.66039198       0.46039198       0.46039198       0.14441554      -0.68739510E-01
  7719.6660       0.47453451       0.67453453       0.47453453       0.47453453       0.12935603       0.41103019E-01
  7719.7880       0.49311904       0.69311906       0.49311906       0.49311906       0.15481460       0.26100064
  7719.9010       0.51091594       0.71091596       0.51091596       0.51091596       0.19069118       0.12678291
  7720.0340       0.54002907       0.74002909       0.54002909       0.54002909       0.18600320       0.66271877E-01
  7720.1540       0.55797475       0.75797477       0.55797477       0.55797477       0.20745797       0.18604035E-01
  7720.2670       0.58836678       0.78836680       0.58836680       0.58836680       0.19033794      -0.24651659
  7720.3970       0.60422687       0.80422689       0.60422689       0.60422689       0.14755444      -0.80386504E-01
  7720.5160       0.62510783       0.82510786       0.62510786       0.62510786       0.17032170       0.17228600
  7720.6460       0.64663698       0.84663700       0.64663700       0.64663700       0.19045365       0.22199464
  7720.7660       0.67272125       0.87272127       0.67272127       0.67272127       0.22582036       0.92989361E-01
  7720.8790       0.69925312       0.89925314       0.69925314       0.69925314       0.21212017      -0.55394542E-01
  7721.0130       0.72511493       0.92511495       0.72511495       0.72511495       0.21213791      -0.56172326E-01
  7721.1330       0.75313615       0.95313617       0.75313617       0.75313617       0.19785240      -0.24048239E-01
  7721.2460       0.77121454       0.97121456       0.77121456       0.77121456       0.20653467       0.20246226
  7721.3790       0.80394368        1.0039437       0.80394370       0.80394370       0.24765812       0.25063353
  7721.5000       0.83411970        1.0341197       0.83405819       0.83405819       0.27019558      -0.43325523E-01
  7721.6120       0.86689925        2.2750475       0.86700995        2.0751581       0.23756327      -0.19568704
  7721.7440       0.89208514        2.2574558       0.89239879        2.0577694       0.22244795       0.16092568
  7721.8620       0.92251124        2.2418671       0.92300632        2.0423622       0.27779469      -0.73815770E-01
  7721.9740       0.95597792        2.2271904       0.95664521        2.0278577       0.20547032      -0.54154047
  7722.1040       0.97223505        2.2103000       0.97310223        2.0111672       0.14674190       0.10126993
  7722.2260       0.99295687        2.1945903       0.99401163        1.9956450       0.23099034       0.33194238
  7722.3580        1.0309066        2.1777462        1.0321643        1.9790039       0.23105526      -0.20730570
  7722.4790        1.0514139        2.1624452        1.0528576        1.9638889       0.17854200      -0.23822866
  7722.5930        1.0728640        2.1481508        1.0744830        1.9497698       0.17507153      -0.19752292
  7722.7240        1.0943064        2.1318697        1.0961268        1.9336901       0.13014889      -0.20878706
  7722.8460        1.1057916        2.1168459        1.1077997        1.9188539       0.12224840       0.17322671
  7722.9580        1.1229125        2.1031709        1.1250927        1.9053511       0.17068394       0.26699583
  7723.0510        1.1407818        2.0919007        1.1431051        1.8942239       0.17698255      -0.10990405
  7723.2130        1.1680431        2.0724522        1.1706154        1.8750245       0.14265840      -0.13861876
  7723.4060        1.1914256        2.0495847        1.1942946        1.8524537       0.12777289      -0.25668648E-01
  7723.6030        1.2178745        2.0265803        1.2210464        1.8297522       0.13264763      -0.60387191E-01
  7723.8000        1.2436887        2.0039139        1.2471636        1.8073887       0.10398033      -0.15056335
  7724.0000        1.2591547        1.9812458        1.2629370        1.7850281       0.72873980E-01  -0.16782911
  7724.1980        1.2726926        1.9591426        1.2767794        1.7632294       0.37184346E-01  -0.15135231
  7724.3960        1.2738797        1.9373736        1.2782709        1.7417648       0.12938466E-01  -0.52148251E-01
  7724.5920        1.2777903        1.9161512        1.2824829        1.7208438       0.16637935E-01  -0.52826346E-01
  7724.7890        1.2804184        1.8951457        1.2854139        1.7001411      -0.78222885E-02  -0.12385433
  7725.0080        1.2745363        1.8721739        1.2798685        1.6775061      -0.34885464E-01  -0.38303596E-01
  7725.7230        1.2478354        1.7999179        1.2542669        1.6063494      -0.43597847E-01  -0.95887067E-02
  7726.5070        1.2091831        1.7254096        1.2168201        1.5330465      -0.49258936E-01   0.91343385E-03
  7727.3020        1.1700555        1.6547464        1.1789148        1.4636057      -0.42155535E-01   0.63818335E-02
  7728.0660        1.1434626        1.5913317        1.1534966        1.4013657      -0.39309657E-01   0.77872970E-02
  7728.8300        1.1099903        1.5321778        1.1211990        1.3433865      -0.30256545E-01   0.19182539E-01
  7729.5930        1.0972609        1.4772130        1.1096427        1.2895948      -0.10017921E-01   0.18140037E-01
  7730.3530        1.0947331        1.4264096        1.1082834        1.2399599      -0.26292692E-02   0.60095386E-02
  7731.1470        1.0931750        1.3773881        1.1079462        1.1921593      -0.67909773E-03   0.36447376E-02
  7731.9100        1.0936757        1.3340395        1.1096200        1.1499838       0.30455872E-02  -0.46529407E-02
  7732.6790        1.0978408        1.2939331        1.1149675        1.1110598      -0.78074029E-02  -0.73964268E-02
  7733.4410        1.0817226        1.2575988        1.1000209        1.0758971      -0.82783423E-02   0.45175625E-02
  7734.2140        1.0851336        1.2240612        1.1046204        1.0435480      -0.87294442E-03  -0.34792711E-02
  7734.9760        1.0803826        1.1941329        1.1010410        1.0147913      -0.13619023E-01  -0.98770018E-02
  7735.7750        1.0638743        1.1659379        1.0857612       0.98782475      -0.16290944E-01   0.77153947E-02
  7736.5390        1.0549198        1.1418822        1.0779815       0.96494376      -0.15598615E-02   0.73727509E-02
  7737.3090        1.0614815        1.1203651        1.0857270       0.94461056      -0.49811443E-02  -0.11730758E-01
  7738.0780        1.0472539        1.1014650        1.0726818       0.92689287      -0.19613498E-01  -0.78618546E-02
  7738.8440        1.0313747        1.0850681        1.0579804       0.91167368      -0.17049091E-01   0.59281371E-02
  7739.6160        1.0210324        1.0708514        1.0488250       0.89864404      -0.10496023E-01   0.11652941E-02
  7740.3880        1.0151689        1.0588074        1.0441485       0.88778697      -0.15249877E-01  -0.78996633E-02
  7741.1610       0.99747130        1.0487786        1.0276394       0.87894671      -0.22701003E-01  -0.58507082E-02
  7741.9520       0.97966450        1.0404676        1.0110488       0.87185192      -0.24400385E-01   0.30675852E-03
  7744.4520       0.91716964        1.0254145       0.95239782       0.86064262      -0.21691461E-01   0.16075084E-02
  7746.9690       0.87083845        1.0236033       0.90993662       0.86270142      -0.16335515E-01   0.17010301E-02
  7749.4530       0.83547573        1.0300296       0.87839316       0.87294700      -0.13184609E-01   0.10410259E-02
  7751.9350       0.80536368        1.0397391       0.85209729       0.88647266      -0.11165780E-01   0.10581101E-02
  7754.4550       0.77962450        1.0492262       0.83023272       0.89983441      -0.78919426E-02   0.20841775E-02
  7756.9490       0.76579348        1.0577519       0.82023633       0.91219468      -0.71571414E-03   0.26452665E-02
  7759.4300       0.77606382        1.0654040       0.83432132       0.92366152       0.52682581E-02   0.16040589E-02
  7761.9470       0.79212423        1.0723463       0.85425173       0.93447372       0.73013721E-02   0.12160522E-02
  7764.4680       0.81284813        1.0784948       0.87885177       0.94449840       0.11394729E-01   0.80547681E-03
  7766.9650       0.84930298        1.0838148       0.91914587       0.95365768       0.11343255E-01  -0.36855556E-04
  7769.4620       0.86949635        1.0883923       0.94317848       0.96207445       0.11210673E-01  -0.20556652E-04
  7771.9870       0.90560298        1.0922903       0.98316741       0.96985470       0.11240019E-01  -0.11264470E-02
  7774.4880       0.92598868        1.0954506        1.0073985       0.97686044       0.55491501E-02  -0.18134339E-02
  7776.9970       0.93340422        1.0979445        1.0186717       0.98321203       0.21547153E-02  -0.73926170E-03
  7780.5620       0.93907642        1.1003697        1.0298253       0.99111852       0.10588746E-02  -0.84992710E-03
  7784.1490       0.94097729        1.1015476        1.0372413       0.99781158      -0.39239633E-02  -0.60319123E-03
  7787.6930       0.91109464        1.1015365        1.0128077        1.0032495      -0.32424821E-02   0.68143815E-03
  7791.2820       0.91784867        1.1004046        1.0250800        1.0076359       0.93673498E-03   0.26178134E-03
  7794.8620       0.91781009        1.0982218        1.0305458        1.0109575      -0.13657717E-02  -0.62923499E-03
  7798.4360       0.90807794        1.0950625        1.0263088        1.0132934      -0.35648121E-02  -0.28595065E-03
  7802.0150       0.89231099        1.0909870        1.0160448        1.0147208      -0.34111766E-02   0.29957325E-04
  7805.6140       0.88359251        1.0860391        1.0128599        1.0153065      -0.33497785E-02   0.10271276E-03
  7809.2040       0.86822944        1.0803252        1.0030166        1.0151123      -0.26727746E-02   0.49153461E-03
  7812.8090       0.86436190        1.0738760        1.0046919        1.0142060       0.18681303E-03  -0.20949401E-05
  7816.3810       0.86957019        1.0668528        1.0153923        1.0126749      -0.26878100E-02  -0.56211929E-03
  7819.9940       0.84504998        1.0591788       0.99642724        1.0105560      -0.38520141E-02   0.24404067E-04
  7823.6050       0.84174324        1.0510076       0.99867257        1.0079369      -0.25115150E-02  -0.80327428E-04
  7827.2230       0.82689424        1.0423895       0.98938640        1.0048816      -0.44327010E-02   0.38490783E-04
  7830.8140       0.80978790        1.0334802       0.97780137        1.0014937      -0.22340350E-02   0.75900803E-03
  7834.4380       0.81077568        1.0242017       0.98436121       0.99778720       0.10435419E-02  -0.29262152E-04
  7838.0600       0.81734941        1.0147120       0.99650391       0.99386645      -0.24460685E-02  -0.40920312E-03
  7841.6900       0.79303679        1.0050568       0.97777258       0.98979260      -0.19239991E-02   0.72944356E-03
  7845.3200       0.80338117       0.99532979       0.99369824       0.98564684       0.28496917E-02   0.13150664E-02
