# XDI/1.0 Athena/0.9.26
# Element.edge:                  K
# Element.symbol:                Co
# Column.1:                      energy eV
# Column.2:                      norm
# Column.3:                      nbkg
# Column.4:                      flat
# Column.5:                      fbkg
# Column.6:                      nder
# Column.7:                      nsec
# Athena.e0:                     7721.54
# Athena.eshift:                 0
# Athena.rbkg:                   1.0
# Athena.importance:             1
# Athena.standard:               None
# Athena.bkg_kweight:            3
# Athena.edge_step:              1.1953926
# Athena.fixed_step:             no
# Athena.pre_edge_range:         -82.964 -19.904
# Athena.pre_edge_line:          0.238824 + 0.00018355 * E
# Athena.normalization_range:    45 125.256
# Athena.post_edge_polynomial:   15.730009 - 0.00166787 * E + 0 * E^2 + 0 * E^3
# Athena.spline_range_energy:    0.000 125.180
# Athena.clamps:                 0 24
# Athena.spline_range_k:         0.000 5.732
# Athena.kweight:                2
# Athena.window:                 hanning
# Athena.phase_correction:       no
# Athena.k_range:                .4 5.35
# Athena.dk:                     .5
# Athena.r_range:                .4 5.1
# Athena.dr:                     .5
# Athena.window:                 hanning
# Athena.plot_multiplier:        1
# Athena.y_offset:               0.2
# ///
#------------------------
#   e         norm        nbkg        flat        fbkg        nder        nsec
  7600.0670      -0.21438550      -0.14385493E-01  -0.21438549      -0.21438549       0.12100754E-01  -0.50462821E-03
  7610.6410      -0.86432127E-01   0.11356788      -0.86432124E-01  -0.86432124E-01   0.67648153E-02  -0.37304748E-03
  7624.5560      -0.48721939E-01   0.15127806      -0.48721937E-01  -0.48721937E-01   0.29651944E-02  -0.20363680E-03
  7637.2000      -0.76795297E-02   0.19232047      -0.76795294E-02  -0.76795294E-02   0.13564256E-02  -0.13090296E-03
  7649.6990      -0.14617330E-01   0.18538267      -0.14617329E-01  -0.14617329E-01  -0.32609881E-03   0.92154306E-04
  7662.1990      -0.15831674E-01   0.18416833      -0.15831673E-01  -0.15831673E-01   0.36601911E-02   0.19647822E-04
  7674.7330       0.77011895E-01   0.27701189       0.77011892E-01   0.77011892E-01   0.16576476E-03  -0.28113530E-03
  7687.3310      -0.11665674E-01   0.18833433      -0.11665674E-01  -0.11665674E-01  -0.34053012E-02   0.11575607E-04
  7700.0100      -0.90639041E-02   0.19093610      -0.90639038E-02  -0.90639038E-02   0.45836136E-03   0.97222061E-03
  7700.3880      -0.56808498E-02   0.19431915      -0.56808496E-02  -0.56808496E-02   0.92889833E-02   0.57977993E-02
  7700.7190      -0.24780150E-02   0.19752199      -0.24780149E-02  -0.24780149E-02   0.45690011E-02  -0.21236126E-01
  7701.0710      -0.25602220E-02   0.19743978      -0.25602219E-02  -0.25602220E-02  -0.52152905E-02  -0.38268009E-02
  7701.4340      -0.62069477E-02   0.19379305      -0.62069475E-02  -0.62069475E-02   0.18328385E-02   0.16123637E-01
  7701.7980      -0.12277485E-02   0.19877225      -0.12277484E-02  -0.12277485E-02   0.65065938E-02  -0.89566415E-02
  7702.1550      -0.15156936E-02   0.19848431      -0.15156935E-02  -0.15156935E-02  -0.46249001E-02  -0.17609376E-01
  7702.5150      -0.45438019E-02   0.19545620      -0.45438017E-02  -0.45438017E-02  -0.61193291E-02   0.22792393E-02
  7702.8790      -0.59460879E-02   0.19405391      -0.59460877E-02  -0.59460877E-02  -0.29747309E-02   0.59243577E-02
  7703.2420      -0.67064312E-02   0.19329357      -0.67064310E-02  -0.67064310E-02  -0.18123211E-02   0.94294207E-02
  7703.6000      -0.72527714E-02   0.19274723      -0.72527711E-02  -0.72527711E-02   0.38238815E-02   0.14998729E-01
  7703.9610      -0.39570604E-02   0.19604294      -0.39570603E-02  -0.39570603E-02   0.89717647E-02   0.16951485E-03
  7704.3250      -0.74824196E-03   0.19925176      -0.74824193E-03  -0.74824195E-03   0.39467797E-02  -0.15912200E-01
  7704.6870      -0.10916983E-02   0.19890830      -0.10916983E-02  -0.10916983E-02  -0.25804923E-02  -0.12856296E-01
  7705.0200      -0.25416841E-02   0.19745832      -0.25416840E-02  -0.25416841E-02  -0.49883459E-02   0.18228096E-02
  7705.3810      -0.45536104E-02   0.19544639      -0.45536102E-02  -0.45536102E-02  -0.13154624E-02   0.30057071E-01
  7705.7490      -0.35006562E-02   0.19649934      -0.35006561E-02  -0.35006561E-02   0.16923259E-01   0.36671870E-01
  7706.1120       0.78172921E-02   0.20781729       0.78172919E-02   0.78172918E-02   0.25491674E-01   0.15867046E-01
  7706.4710       0.14904333E-01   0.21490433       0.14904332E-01   0.14904332E-01   0.28379266E-01   0.10047822E-01
  7706.8310       0.28221984E-01   0.22822198       0.28221983E-01   0.28221983E-01   0.32716058E-01  -0.22988989E-02
  7707.1960       0.38623475E-01   0.23862347       0.38623473E-01   0.38623473E-01   0.26712564E-01  -0.21230044E-01
  7707.5570       0.47615306E-01   0.24761530       0.47615305E-01   0.47615305E-01   0.17303046E-01  -0.30030680E-01
  7707.9150       0.51064365E-01   0.25106436       0.51064363E-01   0.51064363E-01   0.51205054E-02  -0.18499874E-01
  7708.2800       0.51317432E-01   0.25131743       0.51317430E-01   0.51317430E-01   0.39276370E-02  -0.84506200E-02
  7708.6460       0.53935468E-01   0.25393547       0.53935466E-01   0.53935466E-01  -0.10568978E-02  -0.16533745E-01
  7708.9820       0.50575489E-01   0.25057549       0.50575488E-01   0.50575488E-01  -0.76790523E-02   0.63855875E-02
  7709.2900       0.48990158E-01   0.24899016       0.48990156E-01   0.48990156E-01   0.30554205E-02   0.24192398E-01
  7709.5960       0.52451518E-01   0.25245152       0.52451516E-01   0.52451516E-01   0.71750798E-02  -0.12882027E-01
  7709.9030       0.53388482E-01   0.25338848       0.53388480E-01   0.53388480E-01  -0.48412622E-02  -0.34604763E-01
  7710.2110       0.49474141E-01   0.24947414       0.49474140E-01   0.49474140E-01  -0.14106849E-01  -0.59204641E-02
  7710.5140       0.44769197E-01   0.24476920       0.44769195E-01   0.44769195E-01  -0.84586657E-02   0.16691706E-01
  7710.8230       0.44297438E-01   0.24429744       0.44297436E-01   0.44297436E-01  -0.38915253E-02   0.26562609E-01
  7711.1080       0.42457631E-01   0.24245763       0.42457629E-01   0.42457629E-01   0.73195239E-02   0.16760725E-01
  7711.4160       0.48637916E-01   0.24863791       0.48637914E-01   0.48637914E-01   0.60475844E-02  -0.19800284E-01
  7711.7250       0.46188990E-01   0.24618899       0.46188989E-01   0.46188989E-01  -0.48972511E-02  -0.12408962E-01
  7712.0290       0.45635901E-01   0.24563590       0.45635899E-01   0.45635899E-01  -0.15591093E-02  -0.99900823E-02
  7712.3330       0.45241052E-01   0.24524105       0.45241050E-01   0.45241050E-01  -0.10971221E-01   0.90019608E-02
  7712.6440       0.38888600E-01   0.23888860       0.38888598E-01   0.38888598E-01   0.39770966E-02   0.48179016E-01
  7712.9530       0.47706852E-01   0.24770685       0.47706850E-01   0.47706850E-01   0.18899769E-01   0.32440252E-01
  7713.2350       0.50058363E-01   0.25005836       0.50058361E-01   0.50058361E-01   0.23149286E-01   0.40527551E-01
  7713.5380       0.61249184E-01   0.26124918       0.61249182E-01   0.61249182E-01   0.42608386E-01   0.61477912E-01
  7713.8530       0.76390345E-01   0.27639034       0.76390343E-01   0.76390343E-01   0.61142635E-01   0.50157259E-01
  7714.1610       0.99341046E-01   0.29934104       0.99341042E-01   0.99341042E-01   0.73856358E-01   0.55391719E-02
  7714.4700       0.12195972       0.32195971       0.12195971       0.12195971       0.64560304E-01  -0.42560892E-01
  7714.7770       0.13911019       0.33911019       0.13911019       0.13911019       0.47638849E-01  -0.42105456E-01
  7715.0770       0.15087650       0.35087649       0.15087649       0.15087649       0.39002293E-01  -0.17311089E-02
  7715.3860       0.16286259       0.36286258       0.16286258       0.16286258       0.46584603E-01   0.19772718E-02
  7715.6700       0.17850117       0.37850116       0.17850116       0.17850116       0.40174815E-01  -0.32812733E-01
  7715.9720       0.18640503       0.38640502       0.18640502       0.18640502       0.27356342E-01  -0.33195631E-01
  7716.1370       0.19127658       0.39127657       0.19127657       0.19127657       0.24672455E-01  -0.10166385E-01
  7716.2550       0.19338734       0.39338733       0.19338733       0.19338733       0.24479255E-01   0.10776343
  7716.3670       0.19690681       0.39690680       0.19690680       0.19690680       0.49458044E-01   0.18111865
  7716.4990       0.20545510       0.40545509       0.20545509       0.20545509       0.68672206E-01   0.31010523E-01
  7716.6200       0.21428088       0.41428087       0.21428087       0.21428087       0.57303706E-01  -0.73585926E-01
  7716.7330       0.21886417       0.41886416       0.21886416       0.21886416       0.51453099E-01  -0.11083457E-01
  7716.8670       0.22698979       0.42698979       0.22698979       0.22698979       0.54566092E-01  -0.45628061E-01
  7716.9880       0.23277852       0.43277851       0.23277851       0.23277851       0.39817944E-01  -0.48173590E-01
  7717.1010       0.23630719       0.43630718       0.23630718       0.23630718       0.43293472E-01   0.52642574E-01
  7717.2330       0.24338542       0.44338541       0.24338541       0.24338541       0.52715374E-01   0.13709580
  7717.3500       0.24943332       0.44943331       0.24943331       0.24943331       0.77430328E-01   0.41060184E-01
  7717.4620       0.26111697       0.46111696       0.26111696       0.26111696       0.62118156E-01  -0.20135295
  7717.5920       0.26446591       0.46446591       0.26446591       0.26446591       0.28702913E-01   0.10944882
  7717.7100       0.26823529       0.46823528       0.26823528       0.26823528       0.89261464E-01   0.32453166
  7717.8420       0.28678128       0.48678127       0.28678127       0.28678127       0.10983583      -0.83701277E-01
  7717.9600       0.29569424       0.49569423       0.29569423       0.29569423       0.68336145E-01  -0.53187847E-01
  7718.0740       0.30263527       0.50263526       0.30263526       0.30263526       0.97496246E-01   0.18025238
  7718.2060       0.31967832       0.51967831       0.31967831       0.31967831       0.11267823      -0.85689086E-01
  7718.3280       0.33125554       0.53125552       0.33125552       0.33125552       0.75731218E-01  -0.24067623
  7718.4410       0.33747516       0.53747515       0.33747515       0.33747515       0.56119316E-01   0.40974792E-01
  7718.5730       0.34500477       0.54500476       0.34500476       0.34500476       0.85770042E-01   0.20459582
  7718.6930       0.35908921       0.55908920       0.35908920       0.35908920       0.10767746       0.93814448E-01
  7718.8050       0.36998594       0.56998593       0.36998593       0.36998593       0.10753499       0.45406479E-01
  7718.9360       0.38522021       0.58522020       0.38522020       0.38522020       0.11871124       0.19107588
  7719.0560       0.39978246       0.59978245       0.39978245       0.39978245       0.15549504       0.37301180E-01
  7719.1680       0.42129506       0.62129505       0.42129505       0.42129505       0.12736511      -0.22962760
  7719.2990       0.43073218       0.63073217       0.43073217       0.43073217       0.99695534E-01   0.17887449
  7719.4200       0.44641834       0.64641832       0.44641832       0.44641832       0.17244148       0.22999466
  7719.5350       0.47142837       0.67142836       0.47142836       0.47142836       0.15397427      -0.21213058
  7719.6660       0.48429601       0.68429599       0.48429599       0.48429599       0.12025736       0.75319970E-01
  7719.7880       0.50185348       0.70185347       0.50185347       0.50185347       0.17303023       0.23582702
  7719.9010       0.52495811       0.72495809       0.52495809       0.52495809       0.17567671      -0.19055629E-01
  7720.0340       0.54506995       0.74506993       0.54506993       0.54506993       0.16834254       0.19374037
  7720.1540       0.56754877       0.76754875       0.56754875       0.56754875       0.22469302       0.15481842
  7720.2670       0.59742343       0.79742341       0.59742341       0.59742341       0.20441523      -0.33001583
  7720.3970       0.61722168       0.81722165       0.61722165       0.61722165       0.14449917      -0.18093778
  7720.5160       0.63340372       0.83340370       0.63340370       0.63340370       0.15936173       0.12070822
  7720.6460       0.65690275       0.85690272       0.65690272       0.65690272       0.17455552       0.27172849
  7720.7660       0.67704260       0.87704258       0.67704258       0.67704258       0.22729385       0.28595219
  7720.8790       0.70986221       0.90986219       0.70986219       0.70986219       0.24118238      -0.13244581
  7721.0130       0.73661465       0.93661462       0.73661462       0.73661462       0.19457973      -0.18112139
  7721.1330       0.75928546       0.95928544       0.75928544       0.75928544       0.19517755       0.64849369E-02
  7721.2460       0.78209102       0.98209099       0.78209099       0.78209099       0.19609072       0.66975111E-01
  7721.3790       0.80752378        1.0075238       0.80752376       0.80752376       0.21165343       0.27925881
  7721.5000       0.83585099        1.0358510       0.83578904       0.83578904       0.26702246       0.21795402
  7721.6120       0.86974002        2.2664027       0.86985153        2.0665142       0.26243671      -0.11239169
  7721.7440       0.89988555        2.2489153       0.90020150        2.0492313       0.23959889      -0.33473185E-01
  7721.8620       0.92963974        2.2334192       0.93013845        2.0339179       0.25406842      -0.13041786
  7721.9740       0.95832128        2.2188297       0.95899346        2.0195019       0.20960278      -0.34237644
  7722.1040       0.98036361        2.2020397       0.98123713        2.0029133       0.17121332      -0.36815989E-01
  7722.2260        1.0014670        2.1864234        1.0025295        1.9874859       0.20032515       0.18535526
  7722.3580        1.0312462        2.1696797        1.0325131        1.9709466       0.21829355      -0.19610177E-01
  7722.4790        1.0566953        2.1544698        1.0581496        1.9559242       0.19536378      -0.28565591
  7722.5930        1.0771567        2.1402607        1.0787876        1.9418916       0.15116442      -0.34611407
  7722.7240        1.0937306        2.1240768        1.0955644        1.9259106       0.11056583      -0.90226866E-01
  7722.8460        1.1051298        2.1091428        1.1071526        1.9111656       0.12833702       0.28636791
  7722.9580        1.1237615        2.0955496        1.1259576        1.8977458       0.17757592       0.20385940
  7723.0510        1.1415329        2.0843469        1.1438731        1.8866872       0.17012820      -0.19368838
  7723.2130        1.1671441        2.0650150        1.1697353        1.8676061       0.12818539      -0.13051264
  7723.4060        1.1870387        2.0422846        1.1899288        1.8451747       0.12379621       0.35511565E-03
  7723.6030        1.2154247        2.0194184        1.2186198        1.8226136       0.12832388      -0.53422032E-01
  7723.8000        1.2375983        1.9968884        1.2410986        1.8003887       0.10274793      -0.14153742
  7724.0000        1.2562156        1.9743569        1.2600256        1.7781670       0.72133527E-01  -0.18662432
  7724.1980        1.2663075        1.9523872        1.2704242        1.7565039       0.28471447E-01  -0.14746842
  7724.3960        1.2674903        1.9307498        1.2719136        1.7351732       0.13736034E-01  -0.48596017E-01
  7724.5920        1.2717195        1.9096559        1.2764464        1.7143828       0.93246163E-02  -0.58046929E-01
  7724.7890        1.2711549        1.8887777        1.2761869        1.6938098      -0.90764095E-02  -0.99726476E-01
  7725.0080        1.2679437        1.8659456        1.2733149        1.6713168      -0.32161598E-01  -0.35434897E-01
  7725.7230        1.2411159        1.7941304        1.2475945        1.6006090      -0.42172604E-01  -0.94758725E-02
  7726.5070        1.2047270        1.7200798        1.2124198        1.5277727      -0.46365930E-01   0.81066554E-03
  7727.3020        1.1679041        1.6498541        1.1768283        1.4587783      -0.40892563E-01   0.40982699E-02
  7728.0660        1.1409754        1.5868355        1.1510829        1.3969429      -0.39976728E-01   0.73453590E-02
  7728.8300        1.1068197        1.5280543        1.1181104        1.3393450      -0.29668854E-01   0.20805972E-01
  7729.5930        1.0956711        1.4734392        1.1081435        1.2859117      -0.82060077E-02   0.17339980E-01
  7730.3530        1.0943219        1.4229624        1.1079714        1.2366119      -0.32600649E-02   0.40077089E-02
  7731.1470        1.0906050        1.3742598        1.1054842        1.1891391      -0.19780281E-02   0.48954198E-02
  7731.9100        1.0912421        1.3311968        1.1073031        1.1472579       0.43621037E-02  -0.28124157E-02
  7732.6790        1.0972877        1.2913585        1.1145397        1.1086105      -0.62866489E-02  -0.93936735E-02
  7733.4410        1.0816173        1.2552708        1.1000495        1.0737031      -0.10019611E-01   0.25144220E-02
  7734.2140        1.0819076        1.2219648        1.1015370        1.0415942      -0.24270111E-02  -0.19823787E-02
  7734.9760        1.0778918        1.1922472        1.0987014        1.0130569      -0.13062562E-01  -0.86181794E-02
  7735.7750        1.0615169        1.1642551        1.0835640       0.98630227      -0.15879989E-01   0.82832804E-02
  7736.5390        1.0530714        1.1403771        1.0763018       0.96360747      -0.11579449E-03   0.73143958E-02
  7737.3090        1.0613393        1.1190234        1.0857623       0.94344637      -0.46597060E-02  -0.13834819E-01
  7738.0780        1.0459001        1.1002717        1.0715141       0.92588570      -0.21407580E-01  -0.85541928E-02
  7738.8440        1.0284787        1.0840085        1.0552790       0.91080887      -0.17790392E-01   0.72984838E-02
  7739.6160        1.0185385        1.0699132        1.0465345       0.89790926      -0.10182512E-01   0.24963101E-02
  7740.3880        1.0127569        1.0579777        1.0419486       0.88716943      -0.13936089E-01  -0.75006263E-02
  7741.1610       0.99700723        1.0480456        1.0273961       0.87843452      -0.21770980E-01  -0.70295716E-02
  7741.9520       0.97870707        1.0398218        1.0103211       0.87143581      -0.24930339E-01   0.49408469E-04
  7744.4520       0.91496148        1.0249751       0.95044746       0.86046113      -0.21608377E-01   0.17712404E-02
  7746.9690       0.87029785        1.0232854       0.90968214       0.86266974      -0.16044026E-01   0.17173079E-02
  7749.4530       0.83472531        1.0297715       0.87795681       0.87300300      -0.13020120E-01   0.10173592E-02
  7751.9350       0.80563993        1.0395055       0.85271554       0.88658115      -0.10991820E-01   0.10115035E-02
  7754.4550       0.77974422        1.0490009       0.83072279       0.89997946      -0.79605794E-02   0.19821246E-02
  7756.9490       0.76572559        1.0575216       0.82056685       0.91236284      -0.10534472E-02   0.26516821E-02
  7759.4300       0.77450332        1.0651570       0.83318715       0.92384084       0.52315389E-02   0.17591940E-02
  7761.9470       0.79187282        1.0720712       0.85445495       0.93465336       0.77390042E-02   0.12176498E-02
  7764.4680       0.81349243        1.0781816       0.87997907       0.94466831       0.11366059E-01   0.70033318E-03
  7766.9650       0.84890770        1.0834551       0.91926169       0.95380912       0.11253276E-01   0.68373200E-04
  7769.4620       0.86969129        1.0879783       0.94391261       0.96219967       0.11707515E-01  -0.37374241E-04
  7771.9870       0.90770284        1.0918145       0.98583487       0.96994661       0.11065583E-01  -0.13496385E-02
  7774.4880       0.92530691        1.0949081        1.0073125       0.97691368       0.49242317E-02  -0.17537828E-02
  7776.9970       0.93237324        1.0973304        1.0182647       0.98322188       0.22791308E-02  -0.62861301E-03
  7780.5620       0.93915035        1.0996479        1.0305633       0.99106085       0.11060362E-02  -0.89200101E-03
  7784.1490       0.94028361        1.1007134        1.0372521       0.99768185      -0.41004604E-02  -0.62519208E-03
  7787.6930       0.90990996        1.1005901        1.0123674        1.0030475      -0.33522085E-02   0.64492577E-03
  7791.2820       0.91637231        1.0993468        1.0243883        1.0073628       0.49979505E-03   0.28181820E-03
  7794.8620       0.91349299        1.0970579        1.0270537        1.0106186      -0.13318538E-02  -0.47459126E-03
  7798.4360       0.90684423        1.0938010        1.0259403        1.0128971      -0.28954308E-02  -0.30650559E-03
  7802.0150       0.89278198        1.0896390        1.0174212        1.0142783      -0.35242883E-02  -0.10307681E-03
  7805.6140       0.88154688        1.0846187        1.0117602        1.0148321      -0.36353161E-02   0.14531862E-03
  7809.2040       0.86664769        1.0788502        1.0024212        1.0146238      -0.24795928E-02   0.51836284E-03
  7812.8090       0.86370621        1.0723672        1.0050631        1.0137242       0.94304527E-04  -0.49591681E-04
  7816.3810       0.86732451        1.0653342        1.0142137        1.0122235      -0.28355123E-02  -0.52984913E-03
  7819.9940       0.84333306        1.0576776       0.99581805        1.0101626      -0.37126615E-02   0.47780206E-04
  7823.6050       0.84050425        1.0495543       0.99858194        1.0076320      -0.24903480E-02  -0.89615887E-04
  7827.2230       0.82533033        1.0410181       0.98901156        1.0046993      -0.43604947E-02   0.87276334E-04
  7830.8140       0.80906944        1.0322266       0.97831239        1.0014696      -0.18611730E-02   0.73513653E-03
  7834.4380       0.81190197        1.0231072       0.98675775       0.99796296       0.94351535E-03  -0.12492673E-03
  7838.0600       0.81590615        1.0138200       0.99637167       0.99428549      -0.27663921E-02  -0.38514610E-03
  7841.6900       0.79184010        1.0044147       0.97792773       0.99050235      -0.18495641E-02   0.78471515E-03
  7845.3200       0.80247832       0.99498770       0.99418808       0.98669748       0.29306399E-02   0.13168606E-02
