# XDI/1.0 Athena/0.9.26
# Element.edge:                  K
# Element.symbol:                Co
# Column.1:                      energy eV
# Column.2:                      norm
# Column.3:                      nbkg
# Column.4:                      flat
# Column.5:                      fbkg
# Column.6:                      nder
# Column.7:                      nsec
# Athena.e0:                     7721.54
# Athena.eshift:                 0
# Athena.rbkg:                   1.0
# Athena.importance:             1
# Athena.standard:               None
# Athena.bkg_kweight:            3
# Athena.edge_step:              1.1942883
# Athena.fixed_step:             no
# Athena.pre_edge_range:         -82.964 -19.904
# Athena.pre_edge_line:          0.229424 + 0.000184789 * E
# Athena.normalization_range:    45 125.256
# Athena.post_edge_polynomial:   15.650355 - 0.00165767 * E + 0 * E^2 + 0 * E^3
# Athena.spline_range_energy:    0.000 125.180
# Athena.clamps:                 0 24
# Athena.spline_range_k:         0.000 5.732
# Athena.kweight:                2
# Athena.window:                 hanning
# Athena.phase_correction:       no
# Athena.k_range:                .4 5.35
# Athena.dk:                     .5
# Athena.r_range:                .4 5.1
# Athena.dr:                     .5
# Athena.window:                 hanning
# Athena.plot_multiplier:        1
# Athena.y_offset:               0.2
# ///
#------------------------
#   e         norm        nbkg        flat        fbkg        nder        nsec
  7600.0670      -0.21405148      -0.14051470E-01  -0.21405147      -0.21405147       0.12014823E-01  -0.49677636E-03
  7610.6410      -0.87006741E-01   0.11299326      -0.87006739E-01  -0.87006739E-01   0.67619094E-02  -0.36850180E-03
  7624.5560      -0.48459076E-01   0.15154093      -0.48459075E-01  -0.48459075E-01   0.29905820E-02  -0.20407328E-03
  7637.2000      -0.75798737E-02   0.19242013      -0.75798735E-02  -0.75798735E-02   0.13419273E-02  -0.13099610E-03
  7649.6990      -0.14718999E-01   0.18528100      -0.14718999E-01  -0.14718999E-01  -0.30305293E-03   0.90181028E-04
  7662.1990      -0.15155894E-01   0.18484411      -0.15155894E-01  -0.15155894E-01   0.35963628E-02   0.19544011E-04
  7674.7330       0.75312347E-01   0.27531234       0.75312345E-01   0.75312345E-01   0.18621184E-03  -0.27502932E-03
  7687.3310      -0.10476018E-01   0.18952398      -0.10476018E-01  -0.10476018E-01  -0.33156742E-02   0.59145012E-05
  7700.0100      -0.84979493E-02   0.19150205      -0.84979491E-02  -0.84979491E-02   0.33571268E-03   0.96549688E-03
  7700.3880      -0.60926174E-02   0.19390738      -0.60926173E-02  -0.60926173E-02   0.92908186E-02   0.61965230E-02
  7700.7190      -0.19107588E-02   0.19808924      -0.19107588E-02  -0.19107588E-02   0.47290475E-02  -0.22045593E-01
  7701.0710      -0.28626780E-02   0.19713732      -0.28626779E-02  -0.28626780E-02  -0.57663211E-02  -0.49234224E-02
  7701.4340      -0.60336784E-02   0.19396632      -0.60336783E-02  -0.60336783E-02   0.12088004E-02   0.15014303E-01
  7701.7980      -0.19838801E-02   0.19801612      -0.19838800E-02  -0.19838801E-02   0.51490771E-02  -0.54482816E-02
  7702.1550      -0.23211938E-02   0.19767881      -0.23211938E-02  -0.23211938E-02  -0.27194106E-02  -0.14803253E-01
  7702.5150      -0.39336975E-02   0.19606630      -0.39336974E-02  -0.39336974E-02  -0.54648554E-02  -0.15741053E-02
  7702.8790      -0.62777491E-02   0.19372225      -0.62777490E-02  -0.62777490E-02  -0.38590628E-02   0.61371799E-02
  7703.2420      -0.67392362E-02   0.19326076      -0.67392360E-02  -0.67392360E-02  -0.10031256E-02   0.82568572E-02
  7703.6000      -0.70010026E-02   0.19299900      -0.70010025E-02  -0.70010025E-02   0.20941312E-02   0.13143954E-01
  7703.9610      -0.52335558E-02   0.19476644      -0.52335557E-02  -0.52335557E-02   0.84473773E-02   0.26616819E-02
  7704.3250      -0.87665411E-03   0.19912335      -0.87665409E-03  -0.87665412E-03   0.40238506E-02  -0.14552122E-01
  7704.6870      -0.23122403E-02   0.19768776      -0.23122403E-02  -0.23122403E-02  -0.21174632E-02  -0.91384741E-02
  7705.0200      -0.23482910E-02   0.19765171      -0.23482909E-02  -0.23482910E-02  -0.23273890E-02   0.27011096E-02
  7705.3810      -0.39274483E-02   0.19607255      -0.39274482E-02  -0.39274482E-02  -0.24289312E-03   0.22923734E-01
  7705.7490      -0.25253601E-02   0.19747464      -0.25253600E-02  -0.25253601E-02   0.14384013E-01   0.33058075E-01
  7706.1120       0.65872651E-02   0.20658726       0.65872650E-02   0.65872649E-02   0.23922559E-01   0.20255043E-01
  7706.4710       0.14746728E-01   0.21474673       0.14746727E-01   0.14746727E-01   0.29008154E-01   0.10393345E-01
  7706.8310       0.27444128E-01   0.22744413       0.27444127E-01   0.27444127E-01   0.31395375E-01  -0.44097393E-02
  7707.1960       0.37508374E-01   0.23750837       0.37508374E-01   0.37508374E-01   0.25811093E-01  -0.17869038E-01
  7707.5570       0.46182981E-01   0.24618298       0.46182980E-01   0.46182980E-01   0.18422453E-01  -0.26194886E-01
  7707.9150       0.50754118E-01   0.25075412       0.50754117E-01   0.50754117E-01   0.69769700E-02  -0.20055752E-01
  7708.2800       0.51227330E-01   0.25122733       0.51227329E-01   0.51227329E-01   0.39221442E-02  -0.93497459E-02
  7708.6460       0.53621206E-01   0.25362120       0.53621204E-01   0.53621204E-01   0.14230577E-03  -0.15555763E-01
  7708.9820       0.51327229E-01   0.25132723       0.51327228E-01   0.51327228E-01  -0.69980015E-02   0.22394882E-02
  7709.2900       0.49114493E-01   0.24911449       0.49114491E-01   0.49114491E-01   0.15845361E-02   0.23355241E-01
  7709.5960       0.52300134E-01   0.25230013       0.52300133E-01   0.52300133E-01   0.73421165E-02  -0.89767254E-02
  7709.9030       0.53615210E-01   0.25361521       0.53615209E-01   0.53615209E-01  -0.39181965E-02  -0.37223809E-01
  7710.2110       0.49890443E-01   0.24989044       0.49890442E-01   0.49890442E-01  -0.15550526E-01  -0.98866010E-02
  7710.5140       0.44113839E-01   0.24411384       0.44113838E-01   0.44113838E-01  -0.99589097E-02   0.19974401E-01
  7710.8230       0.43795591E-01   0.24379559       0.43795590E-01   0.43795590E-01  -0.33261924E-02   0.26942782E-01
  7711.1080       0.42138080E-01   0.24213808       0.42138079E-01   0.42138079E-01   0.60451025E-02   0.11662691E-01
  7711.4160       0.47380336E-01   0.24738034       0.47380335E-01   0.47380335E-01   0.35897836E-02  -0.22982344E-01
  7711.7250       0.44352977E-01   0.24435298       0.44352976E-01   0.44352976E-01  -0.81350040E-02  -0.11876346E-01
  7712.0290       0.42393579E-01   0.24239358       0.42393578E-01   0.42393578E-01  -0.36904164E-02   0.19276817E-02
  7712.3330       0.42109204E-01   0.24210920       0.42109203E-01   0.42109203E-01  -0.69629735E-02   0.12262540E-01
  7712.6440       0.38111350E-01   0.23811135       0.38111349E-01   0.38111349E-01   0.38510459E-02   0.36235999E-01
  7712.9530       0.44496852E-01   0.24449685       0.44496851E-01   0.44496851E-01   0.15503346E-01   0.31548057E-01
  7713.2350       0.47273828E-01   0.24727383       0.47273827E-01   0.47273827E-01   0.22495948E-01   0.46868297E-01
  7713.5380       0.57656982E-01   0.25765698       0.57656980E-01   0.57656980E-01   0.42921300E-01   0.59507725E-01
  7713.8530       0.73799191E-01   0.27379919       0.73799189E-01   0.73799189E-01   0.59271722E-01   0.57037699E-01
  7714.1610       0.94583264E-01   0.29458326       0.94583262E-01   0.94583262E-01   0.78455786E-01   0.17634352E-01
  7714.4700       0.12220641       0.32220641       0.12220641       0.12220641       0.70152117E-01  -0.55546209E-01
  7714.7770       0.13779697       0.33779696       0.13779696       0.13779696       0.44239321E-01  -0.54619881E-01
  7715.0770       0.14905968       0.34905967       0.14905967       0.14905967       0.36997849E-01   0.95046466E-02
  7715.3860       0.16032866       0.36032865       0.16032865       0.16032865       0.50027651E-01   0.16267717E-01
  7715.6700       0.17872608       0.37872607       0.17872607       0.17872607       0.46644605E-01  -0.55752765E-01
  7715.9720       0.18766240       0.38766239       0.18766239       0.18766239       0.17356531E-01  -0.59007504E-01
  7716.1370       0.18683158       0.38683157       0.18683157       0.18683157       0.19088101E-01   0.59667000E-01
  7716.2550       0.19306433       0.39306432       0.19306432       0.19306432       0.34242291E-01   0.10453053
  7716.3670       0.19470730       0.39470730       0.19470730       0.19470730       0.43130124E-01   0.18663277
  7716.4990       0.20358808       0.40358807       0.20358807       0.20358807       0.79780687E-01   0.10651093
  7716.6200       0.21489182       0.41489181       0.21489181       0.21489181       0.70077389E-01  -0.18976161
  7716.7330       0.21998619       0.41998618       0.21998618       0.21998618       0.35376471E-01  -0.18743677
  7716.8670       0.22362980       0.42362980       0.22362980       0.22362980       0.23780506E-01  -0.14687551E-01
  7716.9880       0.22605022       0.42605021       0.22605021       0.22605021       0.31631146E-01   0.74915358E-01
  7717.1010       0.23103149       0.43103149       0.23103149       0.23103149       0.41310700E-01   0.58718928E-01
  7717.2330       0.23617134       0.43617133       0.23617133       0.23617133       0.46017283E-01   0.17767656
  7717.3500       0.24248980       0.44248979       0.24248979       0.24248979       0.85552162E-01   0.53388913E-01
  7717.4620       0.25576278       0.45576278       0.25576278       0.25576278       0.58243344E-01  -0.14241180
  7717.5920       0.25658469       0.45658468       0.25658468       0.25658468       0.51088506E-01   0.10831606
  7717.7100       0.26843273       0.46843273       0.26843273       0.26843273       0.85105726E-01   0.12777018
  7717.8420       0.27786112       0.47786111       0.27786111       0.27786111       0.83031051E-01   0.79500821E-01
  7717.9600       0.28919050       0.48919049       0.28919049       0.28919049       0.10498093       0.64380342E-01
  7718.0740       0.30221669       0.50221669       0.30221669       0.30221669       0.97967291E-01  -0.10950392
  7718.2060       0.31329045       0.51329044       0.31329044       0.31329044       0.78042968E-01  -0.13429104
  7718.3280       0.32203961       0.52203960       0.32203960       0.32203960       0.63857367E-01   0.99335535E-01
  7718.4410       0.32829693       0.52829692       0.32829692       0.32829692       0.10138682       0.14501888
  7718.5730       0.34687938       0.54687937       0.34687937       0.34687937       0.99386992E-01  -0.41023115E-01
  7718.6930       0.35334245       0.55334244       0.35334244       0.35334244       0.91048993E-01   0.23107117E-01
  7718.8050       0.36800274       0.56800273       0.36800273       0.36800273       0.10474784       0.90494660E-01
  7718.9360       0.37879618       0.57879617       0.37879617       0.37879617       0.11303920       0.17232779
  7719.0560       0.39637558       0.59637557       0.39637557       0.39637557       0.14800212       0.39551778E-01
  7719.1680       0.41313267       0.61313266       0.41313266       0.41313266       0.12221521      -0.57230863E-01
  7719.2990       0.42607388       0.62607387       0.42607387       0.42607387       0.13409502       0.12080039
  7719.4200       0.44692461       0.64692460       0.44692460       0.44692460       0.15265691      -0.40163007E-02
  7719.5350       0.46210091       0.66210090       0.46210090       0.46210090       0.13314717       0.13331347E-01
  7719.6660       0.47967882       0.67967881       0.47967881       0.47967881       0.15593642       0.40490005E-01
  7719.7880       0.50155282       0.70155281       0.50155281       0.50155281       0.14339114       0.16396077E-01
  7719.9010       0.51337574       0.71337572       0.51337572       0.51337572       0.15978950       0.26757268
  7720.0340       0.54086104       0.74086103       0.54086103       0.54086103       0.20921402       0.18767840
  7720.1540       0.56630688       0.76630687       0.56630687       0.56630687       0.20727213      -0.14669255
  7720.2670       0.58915545       0.78915543       0.58915543       0.58915543       0.17503466      -0.99347928E-01
  7720.3970       0.60884031       0.80884029       0.60884029       0.60884029       0.18313059      -0.50466141E-01
  7720.5160       0.63475496       0.83475495       0.63475495       0.63475495       0.16246859      -0.39108040E-01
  7720.6460       0.64929498       0.84929497       0.64929497       0.64929497       0.17339269       0.22214399
  7720.7660       0.67810313       0.87810312       0.67810312       0.67810312       0.21800458       0.16998581
  7720.8790       0.70009005       0.90009003       0.70009003       0.70009003       0.21299938       0.64510072E-01
  7721.0130       0.73071398       0.93071396       0.73071396       0.73071396       0.23393857      -0.11196384
  7721.1330       0.75951045       0.95951043       0.75951043       0.75951043       0.18456056      -0.16439296
  7721.2460       0.77371659       0.97371657       0.77371657       0.77371657       0.19563501       0.28219187
  7721.3790       0.80763666        1.0076366       0.80763664       0.80763664       0.25397976       0.25901990
  7721.5000       0.83822745        1.0382274       0.83816575       0.83816575       0.26142607      -0.10286245
  7721.6120       0.86854894        2.2766700       0.86866001        2.0767811       0.23001281      -0.20619687
  7721.7440       0.89435058        2.2590397       0.89466530        2.0593544       0.21111403       0.23533244
  7721.8620       0.92132744        2.2434168       0.92182420        2.0439135       0.28884592       0.29163642E-01
  7721.9740       0.96078514        2.2287079       0.96145468        2.0293775       0.21782167      -0.59810903
  7722.1040       0.97404029        2.2117806       0.97491039        2.0126508       0.14410354       0.55390743E-01
  7722.2260       0.99709923        2.1960367       0.99815754        1.9970950       0.23178014       0.30671382
  7722.3580        1.0329124        2.1791560        1.0341744        1.9804180       0.22200885      -0.19582620
  7722.4790        1.0532675        2.1638218        1.0547161        1.9652704       0.18223611      -0.19637414
  7722.5930        1.0757379        2.1494965        1.0773624        1.9511210       0.17586092      -0.24383626
  7722.7240        1.0963534        2.1331803        1.0981800        1.9350070       0.12249622      -0.22114302
  7722.8460        1.1067295        2.1181243        1.1087443        1.9201391       0.11991174       0.20204009
  7722.9580        1.1244127        2.1044199        1.1266003        1.9066075       0.16977360       0.26381390
  7723.0510        1.1415331        2.0931257        1.1438641        1.8954567       0.17399359      -0.11905413
  7723.2130        1.1687811        2.0736357        1.1713621        1.8762167       0.13941480      -0.13689466
  7723.4060        1.1910253        2.0507196        1.1939040        1.8535984       0.12539598      -0.10921620E-01
  7723.6030        1.2176855        2.0276666        1.2208682        1.8308492       0.13515537      -0.47879092E-01
  7723.8000        1.2442765        2.0049525        1.2477631        1.8084391       0.10653162      -0.16393776
  7724.0000        1.2599786        1.9822370        1.2637737        1.7860321       0.70072082E-01  -0.19845348
  7724.1980        1.2721652        1.9600878        1.2762658        1.7641884       0.27547140E-01  -0.15061652
  7724.3960        1.2708873        1.9382737        1.2752933        1.7426797       0.10427940E-01  -0.13583369E-01
  7724.5920        1.2762738        1.9170076        1.2809822        1.7217160       0.22195292E-01  -0.69004550E-01
  7724.7890        1.2796100        1.8959589        1.2846223        1.7009713      -0.16690848E-01  -0.13704169
  7725.0080        1.2693304        1.8729404        1.2746806        1.6782906      -0.34814050E-01  -0.25892060E-01
  7725.7230        1.2470937        1.8005391        1.2535469        1.6069924      -0.40874032E-01  -0.97963593E-02
  7726.5070        1.2080603        1.7258846        1.2157230        1.5335473      -0.49498793E-01  -0.59553903E-03
  7727.3020        1.1689351        1.6550865        1.1778243        1.4639757      -0.41814388E-01   0.68114092E-02
  7728.0660        1.1428716        1.5915545        1.1529395        1.4016223      -0.38879806E-01   0.86626872E-02
  7728.8300        1.1095268        1.5322948        1.1207732        1.3435413      -0.28577802E-01   0.18774747E-01
  7729.5930        1.0992333        1.4772353        1.1116569        1.2896589      -0.10210767E-01   0.16404981E-01
  7730.3530        1.0939758        1.4263481        1.1075718        1.2399442      -0.35930151E-02   0.75730883E-02
  7731.1470        1.0936498        1.3772499        1.1084708        1.1920709       0.15578124E-02   0.33216931E-02
  7731.9100        1.0964013        1.3338373        1.1123994        1.1498354       0.15788610E-02  -0.69944445E-02
  7732.6790        1.0960686        1.2936758        1.1132530        1.1108603      -0.91576766E-02  -0.70094448E-02
  7733.4410        1.0823809        1.2572957        1.1007409        1.0756557      -0.91525990E-02   0.43909084E-02
  7734.2140        1.0820194        1.2237200        1.1015719        1.0432725      -0.24176322E-02  -0.10186802E-02
  7734.9760        1.0786698        1.1937620        1.0993979        1.0144902      -0.10716273E-01  -0.82149341E-02
  7735.7750        1.0652913        1.1655437        1.0872520       0.98750448      -0.15241144E-01   0.48677957E-02
  7736.5390        1.0548479        1.1414729        1.0779873       0.96461229      -0.31079085E-02   0.66507055E-02
  7737.3090        1.0605237        1.1199470        1.0848510       0.94427433      -0.50389621E-02  -0.10628550E-01
  7738.0780        1.0470929        1.1010443        1.0726066       0.92655794      -0.19465246E-01  -0.75400837E-02
  7738.8440        1.0306446        1.0846502        1.0573399       0.91134561      -0.16612991E-01   0.54453058E-02
  7739.6160        1.0215421        1.0704417        1.0494285       0.89832803      -0.11090366E-01   0.87214612E-03
  7740.3880        1.0135210        1.0584103        1.0425984       0.88748770      -0.15266397E-01  -0.62943143E-02
  7741.1610       0.99795557        1.0483986        1.0282254       0.87866844      -0.20815081E-01  -0.59395631E-02
  7741.9520       0.98096626        1.0401088        1.0124564       0.87159902      -0.24555874E-01  -0.37646574E-03
  7744.4520       0.91714218        1.0251430       0.95248917       0.86048997      -0.22054030E-01   0.16518027E-02
  7746.9690       0.87032119        1.0234379       0.90955122       0.86266796      -0.16268779E-01   0.17861240E-02
  7749.4530       0.83578202        1.0299709       0.87884418       0.87303312      -0.13121624E-01   0.94915686E-03
  7751.9350       0.80515920        1.0397732       0.85205042       0.88666441      -0.11555267E-01   0.10503341E-02
  7754.4550       0.77798258        1.0493287       0.82876147       0.90010760      -0.78678531E-02   0.21793953E-02
  7756.9490       0.76570979        1.0578966       0.82033624       0.91252305      -0.62777831E-03   0.26978051E-02
  7759.4300       0.77485938        1.0655678       0.83331334       0.92402174       0.55537274E-02   0.16657557E-02
  7761.9470       0.79346732        1.0725078       0.85580433       0.93484487       0.76976688E-02   0.11811794E-02
  7764.4680       0.81364023        1.0786348       0.87986646       0.94486102       0.11504509E-01   0.70716497E-03
  7766.9650       0.85119695        1.0839163       0.92127536       0.95399476       0.11246223E-01  -0.10001264E-03
  7769.4620       0.86980387        1.0884404       0.94373447       0.96237103       0.11005046E-01  -0.25867478E-04
  7771.9870       0.90646429        1.0922713       0.98429028       0.97009726       0.11116316E-01  -0.11640574E-02
  7774.4880       0.92567447        1.0953543        1.0073588       0.97703864       0.51544934E-02  -0.17630962E-02
  7776.9970       0.93228830        1.0977618        1.0178434       0.98331692       0.22832044E-02  -0.71288719E-03
  7780.5620       0.93954266        1.1000534        1.0305975       0.99110828       0.82441664E-03  -0.87425935E-03
  7784.1490       0.93818453        1.1010894        1.0347732       0.99767805      -0.39694985E-02  -0.52955099E-03
  7787.6930       0.91123616        1.1009367        1.0132922        1.0029928      -0.29518115E-02   0.62722028E-03
  7791.2820       0.91712926        1.0996662        1.0247222        1.0072592       0.50446375E-03   0.23995514E-03
  7794.8620       0.91485266        1.0973561        1.0279686        1.0104720      -0.12315730E-02  -0.51023890E-03
  7798.4360       0.90831858        1.0940866        1.0269482        1.0127162      -0.31457854E-02  -0.34717446E-03
  7802.0150       0.89235086        1.0899238        1.0165019        1.0140748      -0.37149120E-02  -0.48483489E-04
  7805.6140       0.88165294        1.0849175        1.0113562        1.0146208      -0.34937999E-02   0.16817523E-03
  7809.2040       0.86723393        1.0791809        1.0024756        1.0144226      -0.25059002E-02   0.50338682E-03
  7812.8090       0.86362299        1.0727510        1.0044262        1.0135542       0.12806835E-03   0.70937121E-05
  7816.3810       0.86815308        1.0657945        1.0144669        1.0121084      -0.24549886E-02  -0.54297678E-03
  7819.9940       0.84598390        1.0582425       0.99787162        1.0101302      -0.37732198E-02  -0.28034585E-04
  7823.6050       0.84089534        1.0502542       0.99835386        1.0077127      -0.26575105E-02  -0.73801071E-04
  7827.2230       0.82677276        1.0418869       0.98981286        1.0049270      -0.43067278E-02   0.65912851E-04
  7830.8140       0.80984814        1.0332994       0.97842818        1.0018795      -0.21823447E-02   0.74154090E-03
  7834.4380       0.81102714        1.0244257       0.98519803       0.99859665       0.10434898E-02  -0.79496733E-04
  7838.0600       0.81740927        1.0154273       0.99716791       0.99518594      -0.27583781E-02  -0.40246351E-03
  7841.6900       0.79102338        1.0063578       0.97638213       0.99171655      -0.18751756E-02   0.86458214E-03
  7845.3200       0.80379549       0.99731614       0.99475434       0.98827501       0.35184883E-02   0.14858578E-02
