# XDI/1.0 Athena/0.9.26
# Element.edge:                  K
# Element.symbol:                Co
# Column.1:                      energy eV
# Column.2:                      norm
# Column.3:                      nbkg
# Column.4:                      flat
# Column.5:                      fbkg
# Column.6:                      nder
# Column.7:                      nsec
# Athena.e0:                     7721.54
# Athena.eshift:                 0
# Athena.rbkg:                   1.0
# Athena.importance:             1
# Athena.standard:               None
# Athena.bkg_kweight:            3
# Athena.edge_step:              1.1923758
# Athena.fixed_step:             no
# Athena.pre_edge_range:         -82.964 -19.904
# Athena.pre_edge_line:          -0.046034 + 0.000220652 * E
# Athena.normalization_range:    45 125.256
# Athena.post_edge_polynomial:   15.576961 - 0.00164823 * E + 0 * E^2 + 0 * E^3
# Athena.spline_range_energy:    0.000 125.180
# Athena.clamps:                 0 24
# Athena.spline_range_k:         0.000 5.732
# Athena.kweight:                2
# Athena.window:                 hanning
# Athena.phase_correction:       no
# Athena.k_range:                .4 5.35
# Athena.dk:                     .5
# Athena.r_range:                .4 5.1
# Athena.dr:                     .5
# Athena.window:                 hanning
# Athena.plot_multiplier:        1
# Athena.y_offset:               0.2
# ///
#------------------------
#   e         norm        nbkg        flat        fbkg        nder        nsec
  7600.0670      -0.21366073      -0.13660739E-01  -0.21366074      -0.21366074       0.12376103E-01  -0.52257072E-03
  7610.6410      -0.82795821E-01   0.11720418      -0.82795823E-01  -0.82795823E-01   0.68504402E-02  -0.39017704E-03
  7624.5560      -0.45900304E-01   0.15409969      -0.45900306E-01  -0.45900306E-01   0.28210575E-02  -0.21303839E-03
  7637.2000      -0.78713549E-02   0.19212864      -0.78713551E-02  -0.78713550E-02   0.11923535E-02  -0.12539912E-03
  7649.6990      -0.15920960E-01   0.18407904      -0.15920961E-01  -0.15920961E-01  -0.33185264E-03   0.10628712E-03
  7662.1990      -0.16167339E-01   0.18383266      -0.16167339E-01  -0.16167339E-01   0.38494251E-02   0.20557071E-04
  7674.7330       0.80445549E-01   0.28044555       0.80445551E-01   0.80445551E-01   0.18277308E-03  -0.29394858E-03
  7687.3310      -0.11573886E-01   0.18842611      -0.11573886E-01  -0.11573886E-01  -0.35380906E-02   0.84320938E-05
  7700.0100      -0.89867676E-02   0.19101323      -0.89867678E-02  -0.89867678E-02   0.39591111E-03   0.98714067E-03
  7700.3880      -0.64044747E-02   0.19359553      -0.64044748E-02  -0.64044748E-02   0.93510051E-02   0.78875008E-02
  7700.7190      -0.23569049E-02   0.19764310      -0.23569050E-02  -0.23569050E-02   0.59881492E-02  -0.22054417E-01
  7701.0710      -0.23145688E-02   0.19768543      -0.23145688E-02  -0.23145688E-02  -0.57121615E-02  -0.85551455E-02
  7701.4340      -0.64411004E-02   0.19355890      -0.64411006E-02  -0.64411005E-02  -0.12877987E-03   0.14918771E-01
  7701.7980      -0.24081917E-02   0.19759181      -0.24081918E-02  -0.24081918E-02   0.51337849E-02  -0.39351093E-02
  7702.1550      -0.27396415E-02   0.19726036      -0.27396415E-02  -0.27396415E-02  -0.29659937E-02  -0.14036691E-01
  7702.5150      -0.45348092E-02   0.19546519      -0.45348093E-02  -0.45348093E-02  -0.49305223E-02   0.74720493E-03
  7702.8790      -0.63093396E-02   0.19369066      -0.63093398E-02  -0.63093398E-02  -0.24250173E-02   0.81800506E-02
  7703.2420      -0.62977968E-02   0.19370220      -0.62977969E-02  -0.62977969E-02   0.10163745E-02   0.66557305E-02
  7703.6000      -0.55765336E-02   0.19442347      -0.55765338E-02  -0.55765338E-02   0.23737644E-02   0.91630560E-02
  7703.9610      -0.45910602E-02   0.19540894      -0.45910603E-02  -0.45910603E-02   0.76046117E-02   0.26612394E-02
  7704.3250      -0.63190138E-04   0.19993681      -0.63190139E-04  -0.63190107E-04   0.43031629E-02  -0.16845960E-01
  7704.6870      -0.14669639E-02   0.19853304      -0.14669639E-02  -0.14669639E-02  -0.46255549E-02  -0.11589118E-01
  7705.0200      -0.32779508E-02   0.19672205      -0.32779509E-02  -0.32779508E-02  -0.37512739E-02   0.99844047E-02
  7705.3810      -0.40703480E-02   0.19592965      -0.40703481E-02  -0.40703481E-02   0.23036220E-02   0.29173482E-01
  7705.7490      -0.15986104E-02   0.19840139      -0.15986104E-02  -0.15986104E-02   0.17516195E-01   0.30989151E-01
  7706.1120       0.87339904E-02   0.20873399       0.87339906E-02   0.87339907E-02   0.24956691E-01   0.17461732E-01
  7706.4710       0.16420121E-01   0.21642012       0.16420121E-01   0.16420121E-01   0.30123565E-01   0.95758026E-02
  7706.8310       0.30392834E-01   0.23039283       0.30392835E-01   0.30392835E-01   0.31841693E-01  -0.66365970E-02
  7707.1960       0.39505348E-01   0.23950535       0.39505349E-01   0.39505349E-01   0.25312033E-01  -0.20760543E-01
  7707.5570       0.48769369E-01   0.24876937       0.48769371E-01   0.48769371E-01   0.16769539E-01  -0.29347029E-01
  7707.9150       0.51562647E-01   0.25156265       0.51562648E-01   0.51562648E-01   0.42115190E-02  -0.19061360E-01
  7708.2800       0.51814298E-01   0.25181430       0.51814299E-01   0.51814299E-01   0.29881755E-02  -0.82583090E-02
  7708.6460       0.53747003E-01   0.25374700       0.53747005E-01   0.53747005E-01  -0.18253049E-02  -0.18806315E-01
  7708.9820       0.50532934E-01   0.25053294       0.50532935E-01   0.50532935E-01  -0.10213858E-01   0.60618322E-02
  7709.2900       0.47169279E-01   0.24716928       0.47169280E-01   0.47169280E-01   0.20785151E-02   0.28877723E-01
  7709.5960       0.51809142E-01   0.25180914       0.51809143E-01   0.51809143E-01   0.75170642E-02  -0.98370745E-02
  7709.9030       0.51777239E-01   0.25177724       0.51777241E-01   0.51777241E-01  -0.39516116E-02  -0.33171966E-01
  7710.2110       0.49378901E-01   0.24937890       0.49378902E-01   0.49378902E-01  -0.12883695E-01  -0.61749816E-02
  7710.5140       0.43905302E-01   0.24390530       0.43905303E-01   0.43905303E-01  -0.77245253E-02   0.24901499E-01
  7710.8230       0.44651491E-01   0.24465149       0.44651492E-01   0.44651493E-01   0.23560224E-02   0.34618701E-01
  7711.1080       0.45304779E-01   0.24530478       0.45304780E-01   0.45304780E-01   0.12838983E-01   0.62240046E-02
  7711.4160       0.52265008E-01   0.25226501       0.52265010E-01   0.52265010E-01   0.60468571E-02  -0.28537576E-01
  7711.7250       0.49035690E-01   0.24903569       0.49035691E-01   0.49035691E-01  -0.47687011E-02  -0.88839429E-02
  7712.0290       0.49341795E-01   0.24934180       0.49341796E-01   0.49341796E-01   0.60100016E-03   0.27889694E-02
  7712.3330       0.49401098E-01   0.24940110       0.49401099E-01   0.49401099E-01  -0.30730077E-02   0.11703176E-01
  7712.6440       0.47451895E-01   0.24745190       0.47451896E-01   0.47451896E-01   0.77984531E-02   0.30583060E-01
  7712.9530       0.54236139E-01   0.25423614       0.54236140E-01   0.54236140E-01   0.15888489E-01   0.30860130E-01
  7713.2350       0.56841992E-01   0.25684199       0.56841993E-01   0.56841993E-01   0.26036790E-01   0.53832388E-01
  7713.5380       0.69467661E-01   0.26946766       0.69467663E-01   0.69467663E-01   0.47380436E-01   0.60956296E-01
  7713.8530       0.86123101E-01   0.28612310       0.86123104E-01   0.86123104E-01   0.63707781E-01   0.52365804E-01
  7714.1610       0.10915761       0.30915761       0.10915761       0.10915761       0.80004332E-01   0.18359638E-01
  7714.4700       0.13548577       0.33548578       0.13548578       0.13548578       0.75035677E-01  -0.44537793E-01
  7714.7770       0.15537959       0.35537959       0.15537959       0.15537959       0.52569052E-01  -0.62919200E-01
  7715.0770       0.16739519       0.36739519       0.16739519       0.16739519       0.36843723E-01  -0.93728253E-02
  7715.3860       0.17781741       0.37781742       0.17781742       0.17781742       0.46861001E-01   0.21881284E-01
  7715.6700       0.19518376       0.39518377       0.19518377       0.19518377       0.49819325E-01  -0.36159588E-01
  7715.9720       0.20701154       0.40701154       0.20701154       0.20701154       0.25671482E-01  -0.64313402E-01
  7716.1370       0.20717234       0.40717235       0.20717235       0.20717235       0.19784966E-01   0.70908438E-01
  7716.2550       0.21261068       0.41261069       0.21261069       0.21261069       0.45738570E-01   0.14862468
  7716.3670       0.21769222       0.41769222       0.21769222       0.21769222       0.53968643E-01   0.10213003
  7716.4990       0.22577903       0.42577904       0.22577904       0.22577904       0.70658297E-01   0.42418922E-01
  7716.6200       0.23556876       0.43556877       0.23556877       0.23556877       0.64700631E-01  -0.11905010
  7716.7330       0.24091898       0.44091899       0.24091899       0.24091899       0.42800573E-01  -0.10190290
  7716.8670       0.24614051       0.44614051       0.24614051       0.24614051       0.39530614E-01  -0.20537792E-01
  7716.9880       0.25099929       0.45099929       0.25099929       0.25099929       0.37563436E-01   0.55537752E-02
  7717.1010       0.25493035       0.45493036       0.25493036       0.25493036       0.40830197E-01   0.12273859
  7717.2330       0.26100268       0.46100269       0.26100269       0.26100269       0.67634391E-01   0.25649494
  7717.3500       0.27177131       0.47177132       0.27177132       0.27177132       0.10469744      -0.83623075E-01
  7717.4620       0.28497840       0.48497840       0.28497840       0.28497840       0.48484707E-01  -0.22679246
  7717.5920       0.28350461       0.48350462       0.28350462       0.28350462       0.49813662E-01   0.18945273
  7717.7100       0.29733219       0.49733219       0.29733219       0.29733219       0.95468983E-01   0.12933191
  7717.8420       0.30737186       0.50737187       0.30737187       0.30737187       0.82146640E-01   0.24917509E-01
  7717.9600       0.31786885       0.51786885       0.31786885       0.31786885       0.10169836       0.19614124
  7718.0740       0.33096588       0.53096589       0.33096589       0.33096589       0.12765141      -0.40069748E-01
  7718.2060       0.34927109       0.54927110       0.34927110       0.34927110       0.91841203E-01  -0.28168075
  7718.3280       0.35429354       0.55429355       0.35429355       0.35429355       0.56104497E-01   0.45402939E-01
  7718.4410       0.36245565       0.56245566       0.36245566       0.36245566       0.10251089       0.26166517
  7718.5730       0.37940871       0.57940872       0.37940872       0.37940872       0.12021246      -0.13660413E-01
  7718.6930       0.39274919       0.59274920       0.39274920       0.39274920       0.99068469E-01  -0.13514626
  7718.8050       0.40239260       0.60239261       0.40239261       0.40239261       0.88858530E-01   0.15241989
  7718.9360       0.41434181       0.61434182       0.41434182       0.41434182       0.13610650       0.35379361
  7719.0560       0.43655533       0.63655534       0.43655534       0.43655534       0.17766073      -0.40025122E-01
  7719.1680       0.45555910       0.65555911       0.45555911       0.45555911       0.12682068      -0.27201369
  7719.2990       0.46737275       0.66737277       0.46737277       0.46737277       0.11156140       0.76462592E-01
  7719.4200       0.48367257       0.68367259       0.48367259       0.48367259       0.14608925       0.13970621
  7719.5350       0.50184982       0.70184983       0.50184983       0.50184983       0.14453207       0.58564431E-02
  7719.6660       0.51922746       0.71922748       0.51922748       0.51922748       0.14752993       0.21424336E-01
  7719.7880       0.53917489       0.73917490       0.53917490       0.53917490       0.14995242       0.16773674
  7719.9010       0.55446628       0.75446630       0.55446630       0.55446630       0.18694807       0.21552109
  7720.0340       0.58516411       0.78516413       0.58516413       0.58516413       0.20297061       0.12868347
  7720.1540       0.60581785       0.80581786       0.60581786       0.60581786       0.21950498      -0.75302416E-01
  7720.2670       0.63630878       0.83630879       0.63630879       0.63630879       0.18542515      -0.27400746
  7720.3970       0.65087616       0.85087618       0.65087618       0.65087618       0.15292117      -0.97622207E-01
  7720.5160       0.67438615       0.87438616       0.67438616       0.67438616       0.16111722       0.10074490
  7720.6460       0.69099435       0.89099436       0.69099436       0.69099436       0.17800665       0.23585727
  7720.7660       0.71888781       0.91888783       0.71888783       0.71888783       0.22008154       0.13281628
  7720.8790       0.74227335       0.94227336       0.74227336       0.74227336       0.20895284      -0.14276041E-01
  7721.0130       0.77049916       0.97049918       0.77049918       0.77049918       0.21655536      -0.94011633E-01
  7721.1330       0.79727841       0.99727843       0.79727843       0.79727843       0.18507389      -0.84148155E-01
  7721.2460       0.81362138        1.0136214       0.81362140       0.81362140       0.19694884       0.20271774
  7721.3790       0.84572782        1.0457278       0.84572784       0.84572784       0.23494245       0.18899776
  7721.5000       0.87329676        1.0732968       0.87323406       0.87323406       0.24495427      -0.96925626E-01
  7721.6120       0.90280216        2.2344856       0.90291501        2.0345984       0.21235878      -0.11488799
  7721.7440       0.92511230        2.2174678       0.92543204        2.0177875       0.21692160       0.22374941
  7721.8620       0.95703256        2.2023879       0.95753725        2.0028925       0.26829614      -0.11332071
  7721.9740       0.98682042        2.1881903       0.98750065        1.9888705       0.19085783      -0.58051129
  7722.1040        1.0032202        2.1718516        1.0041041        1.9727356       0.12781240       0.31837137E-01
  7722.2260        1.0190291        2.1566551        1.0201043        1.9577303       0.19888079       0.30304645
  7722.3580        1.0537359        2.1403616        1.0550180        1.9416437       0.20478620      -0.19322532
  7722.4790        1.0708401        2.1255609        1.0723118        1.9270327       0.14999479      -0.22552008
  7722.5930        1.0889847        2.1117342        1.0906351        1.9133846       0.15178898      -0.19204190
  7722.7240        1.1080284        2.0959859        1.1098841        1.8978416       0.10294452      -0.18808916
  7722.8460        1.1150296        2.0814540        1.1170766        1.8835009       0.10420242       0.17164527
  7722.9580        1.1324117        2.0682269        1.1346342        1.8704494       0.14310951       0.16552157
  7723.0510        1.1443671        2.0573260        1.1467353        1.8596942       0.13813434      -0.11952925
  7723.2130        1.1676360        2.0385150        1.1702582        1.8411372       0.11262955      -0.91995381E-01
  7723.4060        1.1843506        2.0163976        1.1872753        1.8193222       0.10547598       0.71067971E-03
  7723.6030        1.2087716        1.9941482        1.2120051        1.7973816       0.11290672      -0.44819294E-01
  7723.8000        1.2288358        1.9722264        1.2323780        1.7757686       0.87817183E-01  -0.12194842
  7724.0000        1.2436350        1.9503033        1.2474907        1.7541590       0.64493195E-01  -0.17367063
  7724.1980        1.2545041        1.9289273        1.2586701        1.7330933       0.18696274E-01  -0.16755834
  7724.3960        1.2510388        1.9078749        1.2555151        1.7123513      -0.18599065E-02  -0.19694101E-01
  7724.5920        1.2537713        1.8873517        1.2585549        1.6921352       0.10936798E-01  -0.35774113E-01
  7724.7890        1.2553369        1.8670387        1.2604293        1.6721310      -0.15919133E-01  -0.10113467
  7725.0080        1.2471489        1.8448250        1.2525845        1.6502606      -0.31135226E-01  -0.21147114E-01
  7725.7230        1.2262566        1.7749580        1.2328129        1.5815142      -0.35670537E-01  -0.65638457E-02
  7726.5070        1.1936788        1.7029212        1.2014639        1.5107063      -0.40974431E-01   0.80263719E-04
  7727.3020        1.1615580        1.6346108        1.1705891        1.4436419      -0.35543801E-01   0.36104409E-02
  7728.0660        1.1382660        1.5733161        1.1484946        1.3835446      -0.35345754E-01   0.49033975E-02
  7728.8300        1.1075497        1.5161480        1.1189757        1.3275740      -0.28051409E-01   0.16568042E-01
  7729.5930        1.0954315        1.4630370        1.1080534        1.2756589      -0.10046354E-01   0.15670565E-01
  7730.3530        1.0922491        1.4139554        1.1060622        1.2277685      -0.41851395E-02   0.38222488E-02
  7731.1470        1.0889278        1.3666048        1.1039854        1.1816624      -0.41065795E-02   0.27732899E-02
  7731.9100        1.0858551        1.3247428        1.1021086        1.1409962       0.13287295E-03  -0.24457485E-02
  7732.6790        1.0891314        1.2860210        1.1065902        1.1034797      -0.78534662E-02  -0.59579043E-02
  7733.4410        1.0738315        1.2509504        1.0924846        1.0696035      -0.89886785E-02   0.55639554E-02
  7734.2140        1.0753337        1.2185889        1.0951984        1.0384535       0.68720528E-03  -0.49697779E-03
  7734.9760        1.0748863        1.1897200        1.0959453        1.0107790      -0.97515394E-02  -0.10331923E-01
  7735.7750        1.0601116        1.1625337        1.0824229       0.98484498      -0.15440926E-01   0.56724124E-02
  7736.5390        1.0507522        1.1393493        1.0742610       0.96285805      -0.88555883E-03   0.72738407E-02
  7737.3090        1.0587531        1.1186224        1.0834688       0.94333804      -0.42828548E-02  -0.12974050E-01
  7738.0780        1.0441609        1.1004278        1.0700818       0.92634876      -0.20852623E-01  -0.97887173E-02
  7738.8440        1.0267444        1.0846548        1.0538659       0.91177627      -0.19308536E-01   0.58079579E-02
  7739.6160        1.0144643        1.0709916        1.0427959       0.89932309      -0.11919983E-01   0.37079133E-02
  7740.3880        1.0083399        1.0594298        1.0378815       0.88897127      -0.13583518E-01  -0.52052578E-02
  7741.1610       0.99347779        1.0498169        1.0242309       0.88056996      -0.19962106E-01  -0.70776039E-02
  7741.9520       0.97711918        1.0418667        1.0091121       0.87385959      -0.24652890E-01  -0.45784818E-03
  7744.4520       0.91234513        1.0275765       0.94825641       0.86348771      -0.21468885E-01   0.17533677E-02
  7746.9690       0.86940979        1.0260705       0.90926610       0.86592677      -0.15856244E-01   0.18742873E-02
  7749.4530       0.83304805        1.0324908       0.87679768       0.87624040      -0.12095574E-01   0.11769038E-02
  7751.9350       0.80934316        1.0420360       0.85698297       0.88967579      -0.10011740E-01   0.91730022E-03
  7754.4550       0.78296933        1.0513080       0.83455887       0.90289757      -0.75072382E-02   0.19660853E-02
  7756.9490       0.77170187        1.0595914       0.82720040       0.91508988      -0.15378815E-03   0.25677335E-02
  7759.4300       0.78220423        1.0669767       0.84159138       0.92636377       0.52672359E-02   0.14472602E-02
  7761.9470       0.79802752        1.0736250       0.86135970       0.93695714       0.70796181E-02   0.11450829E-02
  7764.4680       0.81787135        1.0794592       0.88515484       0.94674263       0.11036164E-01   0.73506970E-03
  7766.9650       0.85340699        1.0844514       0.92460416       0.95564853       0.10768198E-01  -0.72299498E-04
  7769.4620       0.87164773        1.0886879       0.94675860       0.96379875       0.10675100E-01  -0.25907964E-04
  7771.9870       0.90701734        1.0922310       0.98608578       0.97129941       0.10638088E-01  -0.11935038E-02
  7774.4880       0.92511476        1.0950331        1.0081032       0.97802151       0.46765495E-02  -0.18133585E-02
  7776.9970       0.93044685        1.0971642        1.0173678       0.98408512       0.15531620E-02  -0.61063625E-03
  7780.5620       0.93454867        1.0990744        1.0270572       0.99158292       0.96754493E-03  -0.76939086E-03
  7784.1490       0.93736673        1.0997434        1.0354974       0.99787398      -0.39495214E-02  -0.54966599E-03
  7787.6930       0.90638463        1.0992478        1.0100700        1.0029331      -0.29521233E-02   0.68087444E-03
  7791.2820       0.91630924        1.0976535        1.0256198        1.0069640       0.90715595E-03   0.16495788E-03
  7794.8620       0.91288803        1.0950471        1.0278098        1.0099688      -0.17695402E-02  -0.63613058E-03
  7798.4360       0.90364995        1.0915121        1.0241734        1.0120355      -0.36437222E-02  -0.19957829E-03
  7802.0150       0.88682449        1.0871170        1.0129575        1.0132500      -0.31971237E-02   0.63700173E-04
  7805.6140       0.88070099        1.0819145        1.0124749        1.0136884      -0.31864824E-02   0.52194106E-04
  7809.2040       0.86391686        1.0760229        1.0013176        1.0134237      -0.28219002E-02   0.46328517E-03
  7812.8090       0.86039742        1.0694818        1.0034485        1.0125329       0.14685438E-03   0.46259073E-04
  7816.3810       0.86497084        1.0624625        1.0136205        1.0111121      -0.24898989E-02  -0.50800087E-03
  7819.9940       0.84250750        1.0548983       0.99682004        1.0092108      -0.35031319E-02  -0.13286427E-04
  7823.6050       0.83966421        1.0469529       0.99963648        1.0069252      -0.25858800E-02  -0.12063791E-03
  7827.2230       0.82381417        1.0386874       0.98945713        1.0043304      -0.43752233E-02   0.79574889E-04
  7830.8140       0.80812323        1.0302627       0.97939457        1.0015340      -0.20122246E-02   0.72108638E-03
  7834.4380       0.80929597        1.0216190       0.98624741       0.99857042       0.82741494E-03  -0.83721894E-04
  7838.0600       0.81411868        1.0129199       0.99674708       0.99554832      -0.26188735E-02  -0.34233467E-03
  7841.6900       0.79030390        1.0042238       0.97862181       0.99254170      -0.16551961E-02   0.80840580E-03
  7845.3200       0.80210195       0.99563246       0.99610937       0.98963986       0.32501526E-02   0.13513357E-02
