# XDI/1.0 Athena/0.9.26
# Element.edge:                  K
# Element.symbol:                Co
# Column.1:                      energy eV
# Column.2:                      norm
# Column.3:                      nbkg
# Column.4:                      flat
# Column.5:                      fbkg
# Column.6:                      nder
# Column.7:                      nsec
# Athena.e0:                     7721.54
# Athena.eshift:                 0
# Athena.rbkg:                   1.0
# Athena.importance:             1
# Athena.standard:               None
# Athena.bkg_kweight:            3
# Athena.edge_step:              1.1926017
# Athena.fixed_step:             no
# Athena.pre_edge_range:         -82.964 -19.904
# Athena.pre_edge_line:          0.218679 + 0.000186215 * E
# Athena.normalization_range:    45 125.256
# Athena.post_edge_polynomial:   15.503826 - 0.00163888 * E + 0 * E^2 + 0 * E^3
# Athena.spline_range_energy:    0.000 125.180
# Athena.clamps:                 0 24
# Athena.spline_range_k:         0.000 5.732
# Athena.kweight:                2
# Athena.window:                 hanning
# Athena.phase_correction:       no
# Athena.k_range:                .4 5.35
# Athena.dk:                     .5
# Athena.r_range:                .4 5.1
# Athena.dr:                     .5
# Athena.window:                 hanning
# Athena.plot_multiplier:        1
# Athena.y_offset:               0.2
# ///
#------------------------
#   e         norm        nbkg        flat        fbkg        nder        nsec
  7600.0670      -0.21590284      -0.15902844E-01  -0.21590284      -0.21590284       0.12238518E-01  -0.51029580E-03
  7610.6410      -0.86492745E-01   0.11350725      -0.86492746E-01  -0.86492746E-01   0.68426506E-02  -0.37773521E-03
  7624.5560      -0.48333167E-01   0.15166683      -0.48333168E-01  -0.48333168E-01   0.29881610E-02  -0.20733259E-03
  7637.2000      -0.71301773E-02   0.19286982      -0.71301775E-02  -0.71301774E-02   0.13361045E-02  -0.13458903E-03
  7649.6990      -0.14739492E-01   0.18526051      -0.14739492E-01  -0.14739492E-01  -0.39581099E-03   0.93317057E-04
  7662.1990      -0.17025056E-01   0.18297494      -0.17025057E-01  -0.17025057E-01   0.36689376E-02   0.25970302E-04
  7674.7330       0.77108692E-01   0.27710869       0.77108694E-01   0.77108694E-01   0.25432954E-03  -0.28145501E-03
  7687.3310      -0.10633246E-01   0.18936675      -0.10633247E-01  -0.10633247E-01  -0.34045897E-02   0.57573499E-05
  7700.0100      -0.89491222E-02   0.19105088      -0.89491224E-02  -0.89491223E-02   0.39985807E-03   0.10111249E-02
  7700.3880      -0.54122996E-02   0.19458770      -0.54122997E-02  -0.54122997E-02   0.97976681E-02   0.43035888E-02
  7700.7190      -0.20025755E-02   0.19799742      -0.20025755E-02  -0.20025755E-02   0.34511025E-02  -0.23847630E-01
  7701.0710      -0.30551966E-02   0.19694480      -0.30551966E-02  -0.30551966E-02  -0.64902631E-02  -0.18702536E-02
  7701.4340      -0.66431136E-02   0.19335689      -0.66431138E-02  -0.66431137E-02   0.21138712E-02   0.17703258E-01
  7701.7980      -0.15184122E-02   0.19848159      -0.15184122E-02  -0.15184122E-02   0.63800057E-02  -0.89193762E-02
  7702.1550      -0.20431295E-02   0.19795687      -0.20431296E-02  -0.20431295E-02  -0.43169990E-02  -0.18649779E-01
  7702.5150      -0.46137005E-02   0.19538630      -0.46137006E-02  -0.46137006E-02  -0.69918861E-02   0.15161491E-02
  7702.8790      -0.71052551E-02   0.19289474      -0.71052552E-02  -0.71052552E-02  -0.32193071E-02   0.99250200E-02
  7703.2420      -0.69541368E-02   0.19304586      -0.69541369E-02  -0.69541369E-02   0.22360343E-03   0.87107823E-02
  7703.6000      -0.69440370E-02   0.19305596      -0.69440372E-02  -0.69440371E-02   0.30611669E-02   0.10431181E-01
  7703.9610      -0.47531578E-02   0.19524684      -0.47531579E-02  -0.47531578E-02   0.77236226E-02   0.45467315E-02
  7704.3250      -0.13444106E-02   0.19865559      -0.13444107E-02  -0.13444106E-02   0.63575473E-02  -0.13623337E-01
  7704.6870      -0.13757844E-03   0.19986242      -0.13757844E-03  -0.13757841E-03  -0.21669201E-02  -0.18315353E-01
  7705.0200      -0.28504201E-02   0.19714958      -0.28504201E-02  -0.28504201E-02  -0.63716231E-02   0.35385588E-02
  7705.3810      -0.45594849E-02   0.19544052      -0.45594850E-02  -0.45594849E-02   0.28883979E-03   0.33813910E-01
  7705.7490      -0.26398559E-02   0.19736014      -0.26398559E-02  -0.26398559E-02   0.18278717E-01   0.33210351E-01
  7706.1120       0.88022573E-02   0.20880226       0.88022575E-02   0.88022575E-02   0.24565606E-01   0.12086033E-01
  7706.4710       0.15096512E-01   0.21509651       0.15096512E-01   0.15096512E-01   0.27004833E-01   0.10688313E-01
  7706.8310       0.28218732E-01   0.22821873       0.28218733E-01   0.28218733E-01   0.32250503E-01   0.11849669E-02
  7707.1960       0.38478127E-01   0.23847813       0.38478127E-01   0.38478127E-01   0.27863934E-01  -0.19967490E-01
  7707.5570       0.48447948E-01   0.24844795       0.48447949E-01   0.48447949E-01   0.17754105E-01  -0.32526886E-01
  7707.9150       0.51243328E-01   0.25124333       0.51243329E-01   0.51243329E-01   0.44771027E-02  -0.19751671E-01
  7708.2800       0.51684893E-01   0.25168489       0.51684895E-01   0.51684895E-01   0.34736466E-02  -0.68036216E-02
  7708.6460       0.53782564E-01   0.25378256       0.53782565E-01   0.53782565E-01  -0.49634469E-03  -0.15219716E-01
  7708.9820       0.51336459E-01   0.25133646       0.51336461E-01   0.51336461E-01  -0.72105943E-02   0.54561896E-02
  7709.2900       0.49138941E-01   0.24913894       0.49138942E-01   0.49138942E-01   0.30174414E-02   0.22319507E-01
  7709.5960       0.53189168E-01   0.25318917       0.53189170E-01   0.53189170E-01   0.64935828E-02  -0.15112146E-01
  7709.9030       0.53119507E-01   0.25311951       0.53119508E-01   0.53119508E-01  -0.62463043E-02  -0.31897651E-01
  7710.2110       0.49347691E-01   0.24934769       0.49347692E-01   0.49347692E-01  -0.13123472E-01  -0.29614837E-02
  7710.5140       0.45101066E-01   0.24510107       0.45101067E-01   0.45101067E-01  -0.80557708E-02   0.17689082E-01
  7710.8230       0.44417560E-01   0.24441756       0.44417561E-01   0.44417561E-01  -0.22977545E-02   0.27566409E-01
  7711.1080       0.43736199E-01   0.24373620       0.43736200E-01   0.43736200E-01   0.83186762E-02   0.13378091E-01
  7711.4160       0.49350535E-01   0.24935054       0.49350536E-01   0.49350536E-01   0.56354534E-02  -0.20742442E-01
  7711.7250       0.47213274E-01   0.24721328       0.47213275E-01   0.47213275E-01  -0.44794108E-02  -0.14679350E-01
  7712.0290       0.46604656E-01   0.24660466       0.46604657E-01   0.46604657E-01  -0.33629879E-02  -0.14122060E-01
  7712.3330       0.45168577E-01   0.24516858       0.45168579E-01   0.45168579E-01  -0.13065623E-01   0.11278103E-01
  7712.6440       0.38569297E-01   0.23856930       0.38569298E-01   0.38569298E-01   0.35730457E-02   0.56592879E-01
  7712.9530       0.47383866E-01   0.24738387       0.47383867E-01   0.47383867E-01   0.22021962E-01   0.39369219E-01
  7713.2350       0.51584277E-01   0.25158428       0.51584278E-01   0.51584278E-01   0.26840254E-01   0.35653895E-01
  7713.5380       0.63085415E-01   0.26308542       0.63085416E-01   0.63085416E-01   0.42879490E-01   0.54822797E-01
  7713.8530       0.78083802E-01   0.27808380       0.78083803E-01   0.78083803E-01   0.60720743E-01   0.50072718E-01
  7714.1610       0.10091444       0.30091444       0.10091444       0.10091444       0.74074793E-01   0.47385702E-02
  7714.4700       0.12378795       0.32378795       0.12378795       0.12378795       0.63644441E-01  -0.41403403E-01
  7714.7770       0.14011941       0.34011942       0.14011942       0.14011942       0.48570297E-01  -0.39043553E-01
  7715.0770       0.15327012       0.35327012       0.15327012       0.15327012       0.39945004E-01  -0.26168146E-02
  7715.3860       0.16444592       0.36444592       0.16444592       0.16444592       0.46976657E-01   0.20890739E-02
  7715.6700       0.18112728       0.38112728       0.18112728       0.18112728       0.41183825E-01  -0.32085193E-01
  7715.9720       0.18857964       0.38857965       0.18857965       0.18857965       0.28174734E-01  -0.25822717E-01
  7716.1370       0.19428488       0.39428488       0.19428488       0.19428488       0.29124616E-01  -0.26344423E-01
  7716.2550       0.19682191       0.39682191       0.19682191       0.19682191       0.20719263E-01   0.50020179E-01
  7716.3670       0.19905031       0.39905031       0.19905031       0.19905031       0.40629258E-01   0.20108315
  7716.4990       0.20673545       0.40673545       0.20673545       0.20673545       0.69783550E-01   0.87370854E-01
  7716.6200       0.21670555       0.41670555       0.21670555       0.21670555       0.62734084E-01  -0.46541695E-01
  7716.7330       0.22141522       0.42141523       0.22141523       0.22141523       0.58892794E-01  -0.12874255E-01
  7716.8670       0.23125207       0.43125207       0.23125207       0.23125207       0.59554143E-01  -0.67118395E-01
  7716.9880       0.23660153       0.43660153       0.23660153       0.23660153       0.41777603E-01  -0.93137358E-01
  7717.1010       0.24102803       0.44102803       0.24102803       0.24102803       0.37760001E-01   0.71494540E-02
  7717.2330       0.24585273       0.44585274       0.24585274       0.24585274       0.43529219E-01   0.15180330
  7717.3500       0.25186680       0.45186681       0.25186681       0.25186681       0.75559022E-01   0.10443739
  7717.4620       0.26315575       0.46315575       0.26315575       0.26315575       0.67445382E-01  -0.17109621
  7717.5920       0.26818858       0.46818859       0.26818859       0.26818859       0.34153740E-01   0.76177128E-01
  7717.7100       0.27162587       0.47162588       0.27162588       0.27162588       0.86337310E-01   0.32816446
  7717.8420       0.28977291       0.48977292       0.28977292       0.28977292       0.11619486      -0.29591775E-01
  7717.9600       0.30067459       0.50067459       0.30067459       0.30067459       0.78939366E-01  -0.13540221
  7718.0740       0.30808684       0.50808685       0.30808685       0.30808685       0.84781543E-01   0.11795526
  7718.2060       0.32153085       0.52153085       0.32153085       0.32153085       0.10795636       0.17204904E-01
  7718.3280       0.33550776       0.53550777       0.33550777       0.33550777       0.89151588E-01  -0.21183304
  7718.4410       0.34248147       0.54248148       0.34248148       0.34248148       0.58175595E-01  -0.60386949E-01
  7718.5730       0.34976078       0.54976079       0.34976079       0.34976079       0.74356786E-01   0.19242016
  7718.6930       0.36121938       0.56121939       0.36121939       0.36121939       0.10666548       0.21873432
  7718.8050       0.37450717       0.57450718       0.37450718       0.37450718       0.12510315       0.31823087E-01
  7718.9360       0.39161944       0.59161945       0.39161945       0.39161945       0.11439849       0.73836678E-01
  7719.0560       0.40322119       0.60322120       0.40322120       0.40322120       0.14363615       0.63486288E-01
  7719.1680       0.42494303       0.62494304       0.42494304       0.42494304       0.12912731      -0.12683306
  7719.2990       0.43459913       0.63459914       0.43459914       0.43459914       0.11281572       0.21445236
  7719.4200       0.45337259       0.65337260       0.45337260       0.45337260       0.18316930       0.17259102
  7719.5350       0.47782708       0.67782709       0.47782709       0.47782709       0.15354720      -0.23536177
  7719.6660       0.49114520       0.69114522       0.49114522       0.49114522       0.12527030       0.58586405E-01
  7719.7880       0.50952047       0.70952048       0.50952048       0.50952048       0.16836956       0.14487950
  7719.9010       0.53071205       0.73071206       0.53071206       0.53071206       0.15931699       0.36087328E-01
  7720.0340       0.54871245       0.74871246       0.54871246       0.54871246       0.17724704       0.26101371
  7720.1540       0.57555555       0.77555557       0.57555557       0.57555557       0.22535345       0.78920828E-01
  7720.2670       0.60121980       0.80121981       0.60121981       0.60121981       0.19563560      -0.27969858
  7720.3970       0.62309500       0.82309502       0.62309502       0.62309502       0.15738670      -0.10606146
  7720.5160       0.64040909       0.84040910       0.64040910       0.64040910       0.16922629       0.61724645E-01
  7720.6460       0.66523235       0.86523236       0.66523236       0.66523236       0.17275614       0.22781026
  7720.7660       0.68359812       0.88359814       0.68359814       0.68359814       0.22617886       0.27554091
  7720.8790       0.71793202       0.91793204       0.71793204       0.71793204       0.23695717      -0.16592806
  7721.0130       0.74212654       0.94212656       0.74212656       0.74212656       0.18519463      -0.15170957
  7721.1330       0.76497146       0.96497147       0.76497147       0.76497147       0.19842294       0.23796892E-01
  7721.2460       0.78835909       0.98835911       0.78835911       0.78835911       0.19073930       0.57112901E-01
  7721.3790       0.81189333        1.0118933       0.81189334       0.81189334       0.21247271       0.28307342
  7721.5000       0.84232716        1.0423272       0.84226594       0.84226594       0.26263995       0.20715625
  7721.6120       0.87308843        2.2665320       0.87319862        2.0666421       0.26074012      -0.87296650E-01
  7721.7440       0.90594774        2.2490748       0.90625993        2.0493870       0.24133957      -0.16381801E-01
  7721.8620       0.93342333        2.2336054       0.93391610        2.0340982       0.25664467      -0.13878103
  7721.9740       0.96497602        2.2190411       0.96564019        2.0197052       0.20941993      -0.40386314
  7722.1040       0.98410295        2.2022801       0.98496606        2.0031432       0.15890979      -0.13415148E-01
  7722.2260        1.0050213        2.1866907        1.0060711        1.9877405       0.20603931       0.24623331
  7722.3580        1.0364369        2.1699758        1.0376888        1.9712276       0.22145305      -0.61276756E-01
  7722.4790        1.0610489        2.1547922        1.0624859        1.9562292       0.19053629      -0.27780679
  7722.5930        1.0812130        2.1406076        1.0828244        1.9422190       0.15616845      -0.33742355
  7722.7240        1.0993102        2.1244516        1.1011221        1.9262635       0.10786752      -0.14354072
  7722.8460        1.1085034        2.1095433        1.1105021        1.9115419       0.11985265       0.29845061
  7722.9580        1.1273557        2.0959734        1.1295257        1.8981435       0.17770497       0.22247994
  7723.0510        1.1449330        2.0847900        1.1472453        1.8871024       0.16546104      -0.19736890
  7723.2130        1.1695483        2.0654914        1.1721085        1.8680516       0.12737590      -0.12596900
  7723.4060        1.1901514        2.0428001        1.1930070        1.8456557       0.12074204       0.10468340E-02
  7723.6030        1.2166377        2.0199732        1.2197948        1.8231303       0.12778416      -0.42564691E-01
  7723.8000        1.2404984        1.9974820        1.2439570        1.8009406       0.10397156      -0.16129979
  7724.0000        1.2579144        1.9749892        1.2616790        1.7787538       0.63748144E-01  -0.21035691
  7724.1980        1.2658701        1.9530572        1.2699378        1.7571248       0.20249504E-01  -0.14319072
  7724.3960        1.2659332        1.9314569        1.2703038        1.7358276       0.70446188E-02  -0.67737995E-02
  7724.5920        1.2686457        1.9103992        1.2733163        1.7150698       0.17580627E-01  -0.26736553E-01
  7724.7890        1.2728424        1.8895569        1.2778145        1.6945290      -0.34628465E-02  -0.12116799
  7725.0080        1.2672052        1.8667639        1.2725124        1.6720711      -0.32825256E-01  -0.40912192E-01
  7725.7230        1.2421836        1.7950716        1.2485850        1.6014730      -0.41674834E-01  -0.98884432E-02
  7726.5070        1.2047346        1.7211475        1.2123358        1.5287487      -0.47648032E-01   0.14174952E-02
  7727.3020        1.1669473        1.6510414        1.1757652        1.4598593      -0.39436609E-01   0.65825161E-02
  7728.0660        1.1432529        1.5881298        1.1532400        1.3981168      -0.37385890E-01   0.64246854E-02
  7728.8300        1.1098217        1.5294480        1.1209779        1.3406043      -0.29619689E-01   0.18587486E-01
  7729.5930        1.0980237        1.4749250        1.1103475        1.2872488      -0.90027988E-02   0.18264482E-01
  7730.3530        1.0961104        1.4245327        1.1095974        1.2380197      -0.18028828E-02   0.50343443E-02
  7731.1470        1.0952220        1.3759114        1.1099240        1.1906134      -0.11794277E-02   0.17551662E-02
  7731.9100        1.0942740        1.3329197        1.1101438        1.1487894       0.92991096E-03  -0.41227849E-02
  7732.6790        1.0966466        1.2931468        1.1136931        1.1101934      -0.74955341E-02  -0.58766315E-02
  7733.4410        1.0827984        1.2571180        1.1010111        1.0753306      -0.80672118E-02   0.38853147E-02
  7734.2140        1.0842634        1.2238656        1.1036591        1.0432612      -0.15315761E-02  -0.32338970E-02
  7734.9760        1.0804474        1.1941953        1.1010092        1.0147570      -0.13031244E-01  -0.96948171E-02
  7735.7750        1.0639217        1.1662470        1.0857062       0.98803145      -0.16665186E-01   0.73311443E-02
  7736.5390        1.0543997        1.1424055        1.0773534       0.96535917      -0.15726651E-02   0.76002307E-02
  7737.3090        1.0615092        1.1210838        1.0856412       0.94521581      -0.50064316E-02  -0.12383530E-01
  7738.0780        1.0466948        1.1023593        1.0720037       0.92766812      -0.20630919E-01  -0.75061693E-02
  7738.8440        1.0298407        1.0861187        1.0563219       0.91259978      -0.16528402E-01   0.71434758E-02
  7739.6160        1.0212742        1.0720419        1.0489367       0.89970446      -0.96442529E-02   0.95711368E-03
  7740.3880        1.0149500        1.0601209        1.0437940       0.88896491      -0.15050618E-01  -0.85593134E-02
  7741.1610       0.99802095        1.0501996        1.0280479       0.88022649      -0.22868392E-01  -0.61661338E-02
  7741.9520       0.97918383        1.0419831        1.0104213       0.87322053      -0.24694451E-01   0.40760367E-03
  7744.4520       0.91675151        1.0271383       0.95181483       0.86220157      -0.21526968E-01   0.17737989E-02
  7746.9690       0.87118303        1.0254242       0.91009824       0.86433937      -0.15795302E-01   0.17690078E-02
  7749.4530       0.83775920        1.0318687       0.88047579       0.87458525      -0.12680160E-01   0.96563700E-03
  7751.9350       0.80821336        1.0415521       0.85472827       0.88806697      -0.10999949E-01   0.95085106E-03
  7754.4550       0.78273746        1.0509931       0.83310885       0.90136451      -0.79240032E-02   0.19846483E-02
  7756.9490       0.76848240        1.0594587       0.82267048       0.91364672      -0.10489224E-02   0.26266918E-02
  7759.4300       0.77751907        1.0670383       0.83550394       0.92502319       0.51437887E-02   0.17897195E-02
  7761.9470       0.79419106        1.0738956       0.85602781       0.93573237       0.78960956E-02   0.11903529E-02
  7764.4680       0.81729960        1.0799493       0.88299436       0.94564407       0.11140786E-01   0.59273433E-03
  7766.9650       0.85009553        1.0851674       0.91961157       0.95468342       0.10870436E-01   0.75207855E-04
  7769.4620       0.87158656        1.0896366       0.94492388       0.96297386       0.11516374E-01  -0.33275590E-04
  7771.9870       0.90793076        1.0934201       0.98513221       0.97062154       0.10703326E-01  -0.12870018E-02
  7774.4880       0.92538148        1.0964640        1.0064103       0.97749281       0.50479033E-02  -0.16743553E-02
  7776.9970       0.93322076        1.0988395        1.0180892       0.98370798       0.23148064E-02  -0.65192091E-03
  7780.5620       0.93944161        1.1010970        1.0297658       0.99142119       0.10881357E-02  -0.87074581E-03
  7784.1490       0.94100310        1.1021112        1.0368166       0.99792476      -0.39127677E-02  -0.60096585E-03
  7787.6930       0.91153966        1.1019480        1.0127768        1.0031850      -0.31973518E-02   0.63854010E-03
  7791.2820       0.91819639        1.1006764        1.0249259        1.0074059       0.64193886E-03   0.24659212E-03
  7794.8620       0.91614172        1.0983735        1.0283499        1.0105817      -0.14295329E-02  -0.54761217E-03
  7798.4360       0.90796951        1.0951182        1.0256471        1.0127958      -0.32756786E-02  -0.27355742E-03
  7802.0150       0.89271080        1.0909753        1.0158655        1.0141300      -0.33862891E-02  -0.17188053E-04
  7805.6140       0.88366273        1.0859932        1.0123252        1.0146557      -0.33990544E-02   0.12017168E-03
  7809.2040       0.86827499        1.0802837        1.0024314        1.0144401      -0.25223749E-02   0.48068707E-03
  7812.8090       0.86551424        1.0738825        1.0051875        1.0135558       0.59489034E-04  -0.21406503E-04
  7816.3810       0.86870195        1.0669546        1.0138416        1.0120943      -0.26760093E-02  -0.50552515E-03
  7819.9940       0.84628712        1.0594303       0.99695596        1.0100991      -0.35727092E-02   0.38409334E-04
  7823.6050       0.84289269        1.0514669       0.99908763        1.0076618      -0.23985403E-02  -0.11618895E-03
  7827.2230       0.82894807        1.0431206       0.99067980        1.0048523      -0.44126391E-02   0.20908351E-04
  7830.8140       0.81108198        1.0345485       0.97830919        1.0017757      -0.22478120E-02   0.73523680E-03
  7834.4380       0.81273010        1.0256836       0.98550329       0.99845673       0.89209439E-03  -0.66287063E-04
  7838.0600       0.81754610        1.0166855       0.99586220       0.99500155      -0.27281281E-02  -0.35640905E-03
  7841.6900       0.79294572        1.0076066       0.97681699       0.99147784      -0.16925841E-02   0.84296460E-03
  7845.3200       0.80525793       0.99854439       0.99468437       0.98797080       0.33917949E-02   0.14006554E-02
