# XDI/1.0 Athena/0.9.26
# Element.edge:                  K
# Element.symbol:                Co
# Column.1:                      energy eV
# Column.2:                      norm
# Column.3:                      nbkg
# Column.4:                      flat
# Column.5:                      fbkg
# Column.6:                      nder
# Column.7:                      nsec
# Athena.e0:                     7721.54
# Athena.eshift:                 0
# Athena.rbkg:                   1.0
# Athena.importance:             1
# Athena.standard:               None
# Athena.bkg_kweight:            3
# Athena.edge_step:              1.1930828
# Athena.fixed_step:             no
# Athena.pre_edge_range:         -82.964 -19.904
# Athena.pre_edge_line:          0.256586 + 0.000181271 * E
# Athena.normalization_range:    45 125.256
# Athena.post_edge_polynomial:   15.551138 - 0.00164498 * E + 0 * E^2 + 0 * E^3
# Athena.spline_range_energy:    0.000 125.180
# Athena.clamps:                 0 24
# Athena.spline_range_k:         0.000 5.732
# Athena.kweight:                2
# Athena.window:                 hanning
# Athena.phase_correction:       no
# Athena.k_range:                .4 5.35
# Athena.dk:                     .5
# Athena.r_range:                .4 5.1
# Athena.dr:                     .5
# Athena.window:                 hanning
# Athena.plot_multiplier:        1
# Athena.y_offset:               0.2
# ///
#------------------------
#   e         norm        nbkg        flat        fbkg        nder        nsec
  7600.0670      -0.21610353      -0.16103539E-01  -0.21610354      -0.21610354       0.12315602E-01  -0.51593067E-03
  7610.6410      -0.85878360E-01   0.11412164      -0.85878362E-01  -0.85878362E-01   0.68601509E-02  -0.38193984E-03
  7624.5560      -0.48105297E-01   0.15189470      -0.48105299E-01  -0.48105299E-01   0.29622770E-02  -0.20872382E-03
  7637.2000      -0.72032436E-02   0.19279676      -0.72032438E-02  -0.72032438E-02   0.13166551E-02  -0.13333018E-03
  7649.6990      -0.15000638E-01   0.18499936      -0.15000639E-01  -0.15000639E-01  -0.39004373E-03   0.95181712E-04
  7662.1990      -0.16953947E-01   0.18304605      -0.16953947E-01  -0.16953947E-01   0.36961027E-02   0.26155274E-04
  7674.7330       0.77527597E-01   0.27752760       0.77527599E-01   0.77527599E-01   0.26472741E-03  -0.28341083E-03
  7687.3310      -0.10300817E-01   0.18969918      -0.10300818E-01  -0.10300818E-01  -0.34265782E-02   0.33906776E-05
  7700.0100      -0.90860204E-02   0.19091398      -0.90860207E-02  -0.90860207E-02   0.35043357E-03   0.10281286E-02
  7700.3880      -0.57252064E-02   0.19427479      -0.57252066E-02  -0.57252066E-02   0.99976965E-02   0.55000429E-02
  7700.7190      -0.19976536E-02   0.19800235      -0.19976537E-02  -0.19976537E-02   0.42499640E-02  -0.24858909E-01
  7701.0710      -0.28224810E-02   0.19717752      -0.28224811E-02  -0.28224811E-02  -0.69809382E-02  -0.33008677E-02
  7701.4340      -0.69890244E-02   0.19301098      -0.69890246E-02  -0.69890246E-02   0.18898435E-02   0.19359444E-01
  7701.7980      -0.14485648E-02   0.19855144      -0.14485648E-02  -0.14485648E-02   0.70933774E-02  -0.81938149E-02
  7702.1550      -0.18746993E-02   0.19812530      -0.18746993E-02  -0.18746993E-02  -0.40178970E-02  -0.19499750E-01
  7702.5150      -0.43293969E-02   0.19567060      -0.43293970E-02  -0.43293970E-02  -0.68879435E-02   0.15756700E-02
  7702.8790      -0.68615704E-02   0.19313843      -0.68615706E-02  -0.68615706E-02  -0.28771119E-02   0.91642348E-02
  7703.2420      -0.64210573E-02   0.19357894      -0.64210575E-02  -0.64210575E-02  -0.22554476E-03   0.88582564E-02
  7703.6000      -0.70241881E-02   0.19297581      -0.70241884E-02  -0.70241884E-02   0.35096909E-02   0.10761522E-01
  7703.9610      -0.38975895E-02   0.19610241      -0.38975897E-02  -0.38975897E-02   0.75119892E-02   0.17567934E-02
  7704.3250      -0.15779959E-02   0.19842200      -0.15779960E-02  -0.15779960E-02   0.47833661E-02  -0.12046036E-01
  7704.6870      -0.42486573E-03   0.19957513      -0.42486574E-03  -0.42486574E-03  -0.12334329E-02  -0.14780927E-01
  7705.0200      -0.24352318E-02   0.19756477      -0.24352319E-02  -0.24352319E-02  -0.54893780E-02   0.24061345E-02
  7705.3810      -0.42344940E-02   0.19576551      -0.42344942E-02  -0.42344942E-02   0.43642441E-03   0.30703637E-01
  7705.7490      -0.21170784E-02   0.19788292      -0.21170785E-02  -0.21170785E-02   0.16893573E-01   0.31902013E-01
  7706.1120       0.81147078E-02   0.20811471       0.81147081E-02   0.81147081E-02   0.23756796E-01   0.17648449E-01
  7706.4710       0.15035328E-01   0.21503533       0.15035329E-01   0.15035329E-01   0.29635753E-01   0.12290057E-01
  7706.8310       0.29422814E-01   0.22942282       0.29422815E-01   0.29422815E-01   0.32593347E-01  -0.54764147E-02
  7707.1960       0.38665505E-01   0.23866551       0.38665507E-01   0.38665507E-01   0.25665352E-01  -0.21357251E-01
  7707.5570       0.48055860E-01   0.24805586       0.48055862E-01   0.48055862E-01   0.17087983E-01  -0.29237265E-01
  7707.9150       0.50951765E-01   0.25095177       0.50951767E-01   0.50951767E-01   0.46437586E-02  -0.17923715E-01
  7708.2800       0.51413298E-01   0.25141330       0.51413299E-01   0.51413299E-01   0.41291377E-02  -0.66477254E-02
  7708.6460       0.53970165E-01   0.25397017       0.53970167E-01   0.53970167E-01  -0.21572871E-03  -0.15866193E-01
  7708.9820       0.51261856E-01   0.25126186       0.51261858E-01   0.51261858E-01  -0.70089298E-02   0.41422026E-02
  7709.2900       0.49456414E-01   0.24945642       0.49456416E-01   0.49456416E-01   0.24518497E-02   0.20533347E-01
  7709.5960       0.52767292E-01   0.25276729       0.52767293E-01   0.52767293E-01   0.55985452E-02  -0.11567887E-01
  7709.9030       0.52888323E-01   0.25288832       0.52888324E-01   0.52888324E-01  -0.46392648E-02  -0.28000006E-01
  7710.2110       0.49914144E-01   0.24991415       0.49914145E-01   0.49914145E-01  -0.11621459E-01  -0.82473853E-02
  7710.5140       0.45787611E-01   0.24578761       0.45787613E-01   0.45787613E-01  -0.96784172E-02   0.12811683E-01
  7710.8230       0.43990953E-01   0.24399095       0.43990954E-01   0.43990954E-01  -0.37807088E-02   0.30779795E-01
  7711.1080       0.43541870E-01   0.24354187       0.43541872E-01   0.43541872E-01   0.86047808E-02   0.18205309E-01
  7711.4160       0.49093588E-01   0.24909359       0.49093589E-01   0.49093589E-01   0.70150394E-02  -0.21965545E-01
  7711.7250       0.47870150E-01   0.24787015       0.47870151E-01   0.47870151E-01  -0.49479604E-02  -0.16234614E-01
  7712.0290       0.46060488E-01   0.24606049       0.46060489E-01   0.46060489E-01  -0.29367789E-02  -0.75822303E-02
  7712.3330       0.46084588E-01   0.24608459       0.46084589E-01   0.46084589E-01  -0.95579564E-02   0.10524651E-01
  7712.6440       0.40182345E-01   0.24018235       0.40182346E-01   0.40182346E-01   0.35358818E-02   0.50093093E-01
  7712.9530       0.48276835E-01   0.24827684       0.48276836E-01   0.48276836E-01   0.21499761E-01   0.38496803E-01
  7713.2350       0.52888704E-01   0.25288871       0.52888705E-01   0.52888705E-01   0.26287493E-01   0.37352916E-01
  7713.5380       0.63655018E-01   0.26365502       0.63655020E-01   0.63655020E-01   0.43351217E-01   0.56784821E-01
  7713.8530       0.79679756E-01   0.27967976       0.79679758E-01   0.79679758E-01   0.61380512E-01   0.46406138E-01
  7714.1610       0.10189508       0.30189508       0.10189508       0.10189508       0.72262241E-01   0.21410902E-02
  7714.4700       0.12426556       0.32426556       0.12426556       0.12426556       0.62701565E-01  -0.36624403E-01
  7714.7770       0.14051924       0.34051925       0.14051925       0.14051925       0.49701608E-01  -0.34033653E-01
  7715.0770       0.15443443       0.35443444       0.15443444       0.15443444       0.42043137E-01  -0.19379752E-02
  7715.3860       0.16612351       0.36612352       0.16612352       0.16612352       0.48521381E-01  -0.14956567E-03
  7715.6700       0.18320761       0.38320762       0.18320762       0.18320762       0.41954445E-01  -0.37431034E-01
  7715.9720       0.19070882       0.39070882       0.19070882       0.19070882       0.26586795E-01  -0.36847014E-01
  7716.1370       0.19562365       0.39562365       0.19562365       0.19562365       0.24746890E-01  -0.36361203E-01
  7716.2550       0.19771219       0.39771219       0.19771219       0.19771219       0.16296575E-01   0.69955216E-01
  7716.3670       0.19937186       0.39937187       0.19937187       0.19937187       0.40836589E-01   0.25175625
  7716.4990       0.20767631       0.40767632       0.20767632       0.20767632       0.77725101E-01   0.10567127
  7716.6200       0.21903631       0.41903632       0.21903632       0.21903632       0.67571420E-01  -0.86593211E-01
  7716.7330       0.22348803       0.42348803       0.22348803       0.22348803       0.57462290E-01  -0.58134196E-01
  7716.8670       0.23322950       0.43322950       0.23322950       0.23322950       0.53212274E-01  -0.60860973E-01
  7716.9880       0.23705716       0.43705716       0.23705716       0.23705716       0.41942741E-01  -0.38046230E-01
  7717.1010       0.24304410       0.44304410       0.24304410       0.24304410       0.44309456E-01  -0.84964605E-02
  7717.2330       0.24791297       0.44791298       0.24791298       0.24791298       0.39861109E-01   0.11980810
  7717.3500       0.25296951       0.45296952       0.25296952       0.25296952       0.74141672E-01   0.13142317
  7717.4620       0.26489142       0.46489142       0.26489142       0.26489142       0.69957015E-01  -0.15719137
  7717.5920       0.26989911       0.46989912       0.26989912       0.26989912       0.36101361E-01   0.60040632E-01
  7717.7100       0.27384455       0.47384456       0.27384456       0.27384456       0.84847092E-01   0.31121116
  7717.8420       0.29111088       0.49111089       0.29111089       0.29111089       0.11390415      -0.43221001E-02
  7717.9600       0.30232059       0.50232060       0.30232060       0.30232060       0.83766567E-01  -0.12797678
  7718.0740       0.31054473       0.51054474       0.31054474       0.31054474       0.84213540E-01   0.10321285
  7718.2060       0.32303712       0.52303713       0.32303713       0.32303713       0.10915693       0.32899828E-01
  7718.3280       0.33827059       0.53827060       0.33827060       0.33827060       0.92570096E-01  -0.20585937
  7718.4410       0.34479109       0.54479111       0.34479111       0.34479111       0.60779975E-01  -0.86306482E-01
  7718.5730       0.35316168       0.55316169       0.35316169       0.35316169       0.71425008E-01   0.17516931
  7718.6930       0.36279020       0.56279021       0.36279021       0.36279021       0.10492264       0.26101356
  7718.8050       0.37750373       0.57750374       0.37750374       0.37750374       0.13198015       0.13363106E-01
  7718.9360       0.39486137       0.59486139       0.39486139       0.39486139       0.10816988       0.16362144E-01
  7719.0560       0.40465437       0.60465438       0.40465438       0.40465438       0.13608705       0.10292860
  7719.1680       0.42643357       0.62643358       0.42643358       0.42643358       0.13204931      -0.66016192E-01
  7719.2990       0.43674235       0.63674237       0.43674237       0.43674237       0.12004512       0.21596582
  7719.4200       0.45668494       0.65668495       0.45668495       0.45668495       0.18647270       0.15437414
  7719.5350       0.48074991       0.68074992       0.48074992       0.48074992       0.15647741      -0.25303406
  7719.6660       0.49517838       0.69517840       0.49517840       0.49517840       0.12422632       0.16635709E-01
  7719.7880       0.51217917       0.71217918       0.51217918       0.51217918       0.16068625       0.13509828
  7719.9010       0.53293965       0.73293967       0.53293967       0.53293967       0.15597441       0.98805362E-01
  7720.0340       0.55054887       0.75054889       0.55054889       0.55054889       0.18499237       0.26893903
  7720.1540       0.57974272       0.77974274       0.57974274       0.57974274       0.22401599       0.21256703E-01
  7720.2670       0.60274460       0.80274462       0.60274462       0.60274462       0.18994518      -0.23559380
  7720.3970       0.62589940       0.82589942       0.62589942       0.62589942       0.16676669      -0.80523484E-01
  7720.5160       0.64426951       0.84426953       0.64426953       0.64426953       0.16989483       0.17943758E-01
  7720.6460       0.66820321       0.86820323       0.66820323       0.66820323       0.17123469       0.19643126
  7720.7660       0.68707818       0.88707820       0.68707820       0.68707820       0.21900265       0.28215013
  7720.8790       0.71923083       0.91923085       0.71923085       0.71923085       0.23697567      -0.11996934
  7721.0130       0.74561117       0.94561119       0.74561119       0.74561119       0.18937022      -0.16893576
  7721.1330       0.76733087       0.96733089       0.76733089       0.76733089       0.19406599       0.52770987E-02
  7721.2460       0.79082854       0.99082857       0.79082857       0.79082857       0.19059978       0.76651359E-01
  7721.3790       0.81421841        1.0142184       0.81421844       0.81421844       0.21292222       0.26853101
  7721.5000       0.84491079        1.0449108       0.84484956       0.84484956       0.25880666       0.19104415
  7721.6120       0.87452036        2.2625974       0.87463057        2.0627076       0.25743551      -0.73401029E-01
  7721.7440       0.90772505        2.2451963       0.90803731        2.0455085       0.24089681       0.47290594E-02
  7721.8620       0.93474457        2.2297766       0.93523745        2.0302694       0.25861777      -0.13673637
  7721.9740       0.96720714        2.2152589       0.96787146        2.0159232       0.20944744      -0.42045873
  7722.1040       0.98543085        2.1985518       0.98629416        1.9994150       0.15686676      -0.24487237E-01
  7722.2260        1.0067376        2.1830125        1.0077876        1.9840625       0.20327666       0.24298044
  7722.3580        1.0370631        2.1663512        1.0383152        1.9676033       0.21858379      -0.13260835E-01
  7722.4790        1.0620393        2.1512164        1.0634766        1.9526537       0.19992167      -0.28520955
  7722.5930        1.0840447        2.1370773        1.0856565        1.9386891       0.15155955      -0.44768585
  7722.7240        1.0991714        2.1209732        1.1009837        1.9227855       0.90238636E-01  -0.11768585
  7722.8460        1.1068751        2.1061127        1.1088742        1.9081118       0.12178503       0.41272294
  7722.9580        1.1276690        2.0925865        1.1298396        1.8947570       0.18681580       0.19938815
  7723.0510        1.1451723        2.0814390        1.1474852        1.8837518       0.16265960      -0.23858322
  7723.2130        1.1691472        2.0622023        1.1717081        1.8647631       0.12597708      -0.12145066
  7723.4060        1.1898942        2.0395839        1.1927505        1.8424401       0.11954461       0.23869517E-02
  7723.6030        1.2157696        2.0168303        1.2189275        1.8199881       0.12690799      -0.47698976E-01
  7723.8000        1.2398959        1.9944112        1.2433553        1.7978706       0.10075122      -0.16348394
  7724.0000        1.2557679        1.9719906        1.2595334        1.7757561       0.62004869E-01  -0.19685813
  7724.1980        1.2645739        1.9501290        1.2686425        1.7541976       0.22401682E-01  -0.13839140
  7724.3960        1.2646389        1.9285981        1.2690106        1.7329698       0.72018759E-02  -0.21479914E-01
  7724.5920        1.2674114        1.9076080        1.2720831        1.7122797       0.13938596E-01  -0.32519804E-01
  7724.7890        1.2701168        1.8868326        1.2750901        1.6918058      -0.55784072E-02  -0.10944056
  7725.0080        1.2650908        1.8641128        1.2703993        1.6694212      -0.31588678E-01  -0.37533822E-01
  7725.7230        1.2406130        1.7926506        1.2470159        1.5990535      -0.40634997E-01  -0.10235583E-01
  7726.5070        1.2041789        1.7189638        1.2117819        1.5265668      -0.46931816E-01   0.65885309E-03
  7727.3020        1.1665076        1.6490828        1.1753275        1.4579027      -0.39594668E-01   0.69776720E-02
  7728.0660        1.1424509        1.5863731        1.1524402        1.3963624      -0.36053626E-01   0.69318283E-02
  7728.8300        1.1114177        1.5278797        1.1225765        1.3390385      -0.29002834E-01   0.16548812E-01
  7729.5930        1.0981635        1.4735316        1.1104902        1.2858583      -0.10783590E-01   0.17186805E-01
  7730.3530        1.0949943        1.4233012        1.1084844        1.2367912      -0.28273311E-02   0.61673848E-02
  7731.1470        1.0937699        1.3748359        1.1084753        1.1895413      -0.11994741E-02   0.29413467E-02
  7731.9100        1.0931267        1.3319823        1.1090001        1.1478556       0.17523458E-02  -0.40661242E-02
  7732.6790        1.0964544        1.2923371        1.1135049        1.1093876      -0.74287765E-02  -0.68178122E-02
  7733.4410        1.0817533        1.2564240        1.0999701        1.0746408      -0.86857247E-02   0.42298298E-02
  7734.2140        1.0831219        1.2232784        1.1025219        1.0426785      -0.93598770E-03  -0.25973111E-02
  7734.9760        1.0803165        1.1937035        1.1008830        1.0142700      -0.12672597E-01  -0.10240579E-01
  7735.7750        1.0633399        1.1658451        1.0851294       0.98763461      -0.16921531E-01   0.66221649E-02
  7736.5390        1.0538682        1.1420804        1.0768271       0.96503934      -0.23221535E-02   0.78290003E-02
  7737.3090        1.0597778        1.1208274        1.0839153       0.94496494      -0.49118450E-02  -0.11349989E-01
  7738.0780        1.0463088        1.1021633        1.0716235       0.92747793      -0.19789786E-01  -0.77020424E-02
  7738.8440        1.0294004        1.0859751        1.0558876       0.91246233      -0.16734480E-01   0.64204193E-02
  7739.6160        1.0205712        1.0719440        1.0482401       0.89961286      -0.99151812E-02   0.99711013E-03
  7740.3880        1.0140914        1.0600617        1.0429420       0.88891230      -0.15194942E-01  -0.81217232E-02
  7741.1610       0.99709502        1.0501727        1.0271289       0.88020651      -0.22463243E-01  -0.59941914E-02
  7741.9520       0.97895888        1.0419832        1.0102035       0.87322780      -0.24569857E-01   0.27536031E-03
  7744.4520       0.91623562        1.0271884       0.95130700       0.86225971      -0.21557033E-01   0.17744789E-02
  7746.9690       0.87080724        1.0254830       0.90973139       0.86440709      -0.15667297E-01   0.17986024E-02
  7749.4530       0.83788347        1.0319109       0.88060987       0.87463724      -0.12562222E-01   0.89873243E-03
  7751.9350       0.80842325        1.0415683       0.85494884       0.88809387      -0.11204192E-01   0.93536851E-03
  7754.4550       0.78184010        1.0509854       0.83222306       0.90136833      -0.78835086E-02   0.20825524E-02
  7756.9490       0.76889534        1.0594310       0.82309586       0.91363148      -0.76227401E-03   0.26369612E-02
  7759.4300       0.77804779        1.0669943       0.83604598       0.92499249       0.52353732E-02   0.17020703E-02
  7761.9470       0.79506173        1.0738384       0.85691269       0.93568932       0.77446734E-02   0.11321118E-02
  7764.4680       0.81706546        1.0798819       0.88277531       0.94559173       0.10938952E-01   0.67473048E-03
  7766.9650       0.84995340        1.0850927       0.91948540       0.95462469       0.11130471E-01   0.13153744E-03
  7769.4620       0.87265103        1.0895572       0.94600519       0.96291130       0.11595850E-01  -0.13127000E-03
  7771.9870       0.90818776        1.0933383       0.98540694       0.97055744       0.10471233E-01  -0.13092241E-02
  7774.4880       0.92527945        1.0963818        1.0063269       0.97742925       0.50156904E-02  -0.16513294E-02
  7776.9970       0.93331637        1.0987588        1.0182043       0.98364678       0.21980725E-02  -0.67025609E-03
  7780.5620       0.93863054        1.1010211        1.0289755       0.99136599       0.94455485E-03  -0.84264864E-03
  7784.1490       0.94007182        1.1020425        1.0359074       0.99787806      -0.38285505E-02  -0.56445012E-03
  7787.6930       0.91132914        1.1018881        1.0125895        1.0031484      -0.30805389E-02   0.64611134E-03
  7791.2820       0.91809834        1.1006266        1.0248524        1.0073806       0.78016168E-03   0.24037334E-03
  7794.8620       0.91692212        1.0983340        1.0291560        1.0105679      -0.13573025E-02  -0.59156969E-03
  7798.4360       0.90838820        1.0950885        1.0260928        1.0127931      -0.34519279E-02  -0.31685852E-03
  7802.0150       0.89223048        1.0909542        1.0154135        1.0141372      -0.36237915E-02   0.22830503E-04
  7805.6140       0.88237662        1.0859790        1.0110686        1.0146710      -0.32880506E-02   0.17893815E-03
  7809.2040       0.86859269        1.0802736        1.0027799        1.0144608      -0.23374051E-02   0.47904410E-03
  7812.8090       0.86555899        1.0738732        1.0052644        1.0135786       0.15867173E-03  -0.50084595E-04
  7816.3810       0.86973147        1.0669420        1.0149045        1.0121150      -0.26968623E-02  -0.54555446E-03
  7819.9940       0.84618203        1.0594094       0.99688549        1.0101129      -0.37611371E-02   0.43535105E-04
  7823.6050       0.84256102        1.0514322       0.99879183        1.0076630      -0.23823647E-02  -0.87939200E-04
  7827.2230       0.82895992        1.0430656       0.99072880        1.0048345      -0.43968495E-02   0.99943177E-05
  7830.8140       0.81086413        1.0344664       0.97812975        1.0017319      -0.23103156E-02   0.74331724E-03
  7834.4380       0.81229099        1.0255660       0.98510386       0.99837883       0.96618437E-03  -0.44695593E-04
  7838.0600       0.81786510        1.0165238       0.99622217       0.99488088      -0.26341799E-02  -0.37504763E-03
  7841.6900       0.79318792        1.0073914       0.97710142       0.99130484      -0.17536610E-02   0.81611296E-03
  7845.3200       0.80513353       0.99826532       0.99460346       0.98773523       0.32908002E-02   0.13896587E-02
