# XDI/1.0 Athena/0.9.26
# Element.edge:                  K
# Element.symbol:                Co
# Column.1:                      energy eV
# Column.2:                      norm
# Column.3:                      nbkg
# Column.4:                      flat
# Column.5:                      fbkg
# Column.6:                      nder
# Column.7:                      nsec
# Athena.e0:                     7721.54
# Athena.eshift:                 0
# Athena.rbkg:                   1.0
# Athena.importance:             1
# Athena.standard:               None
# Athena.bkg_kweight:            3
# Athena.edge_step:              1.1936724
# Athena.fixed_step:             no
# Athena.pre_edge_range:         -82.964 -19.904
# Athena.pre_edge_line:          0.127806 + 0.000198 * E
# Athena.normalization_range:    45 125.256
# Athena.post_edge_polynomial:   15.617588 - 0.00165346 * E + 0 * E^2 + 0 * E^3
# Athena.spline_range_energy:    0.000 125.180
# Athena.clamps:                 0 24
# Athena.spline_range_k:         0.000 5.732
# Athena.kweight:                2
# Athena.window:                 hanning
# Athena.phase_correction:       no
# Athena.k_range:                .4 5.35
# Athena.dk:                     .5
# Athena.r_range:                .4 5.1
# Athena.dr:                     .5
# Athena.window:                 hanning
# Athena.plot_multiplier:        1
# Athena.y_offset:               0.2
# ///
#------------------------
#   e         norm        nbkg        flat        fbkg        nder        nsec
  7600.0670      -0.21369115      -0.13691151E-01  -0.21369115      -0.21369115       0.12096909E-01  -0.50251844E-03
  7610.6410      -0.85778439E-01   0.11422156      -0.85778439E-01  -0.85778439E-01   0.67832786E-02  -0.37385827E-03
  7624.5560      -0.47575441E-01   0.15242456      -0.47575441E-01  -0.47575441E-01   0.29414934E-02  -0.20668230E-03
  7637.2000      -0.76553148E-02   0.19234469      -0.76553148E-02  -0.76553148E-02   0.12940035E-02  -0.12968048E-03
  7649.6990      -0.15040312E-01   0.18495969      -0.15040312E-01  -0.15040312E-01  -0.31906285E-03   0.95510055E-04
  7662.1990      -0.15631567E-01   0.18436843      -0.15631567E-01  -0.15631567E-01   0.36816593E-02   0.20067114E-04
  7674.7330       0.77126348E-01   0.27712635       0.77126348E-01   0.77126348E-01   0.18329728E-03  -0.28163679E-03
  7687.3310      -0.11024940E-01   0.18897506      -0.11024940E-01  -0.11024940E-01  -0.33964365E-02   0.88462835E-05
  7700.0100      -0.87253785E-02   0.19127462      -0.87253785E-02  -0.87253785E-02   0.40690479E-03   0.93277571E-03
  7700.3880      -0.57119840E-02   0.19428802      -0.57119840E-02  -0.57119840E-02   0.87828159E-02   0.50724072E-02
  7700.7190      -0.24983620E-02   0.19750164      -0.24983620E-02  -0.24983620E-02   0.40032415E-02  -0.20759262E-01
  7701.0710      -0.29777701E-02   0.19702223      -0.29777701E-02  -0.29777701E-02  -0.53957599E-02  -0.27644521E-02
  7701.4340      -0.63563304E-02   0.19364367      -0.63563303E-02  -0.63563303E-02   0.20266583E-02   0.15113430E-01
  7701.7980      -0.15043895E-02   0.19849561      -0.15043895E-02  -0.15043895E-02   0.55917039E-02  -0.90308594E-02
  7702.1550      -0.23247119E-02   0.19767529      -0.23247119E-02  -0.23247119E-02  -0.44845913E-02  -0.16606702E-01
  7702.5150      -0.47198415E-02   0.19528016      -0.47198415E-02  -0.47198415E-02  -0.63153014E-02   0.38354781E-02
  7702.8790      -0.68969901E-02   0.19310301      -0.68969901E-02  -0.68969901E-02  -0.17077052E-02   0.83007420E-02
  7703.2420      -0.59613432E-02   0.19403866      -0.59613432E-02  -0.59613432E-02  -0.28066196E-03   0.48966765E-02
  7703.6000      -0.70993473E-02   0.19290065      -0.70993473E-02  -0.70993473E-02   0.18227986E-02   0.11033365E-01
  7703.9610      -0.46507510E-02   0.19534925      -0.46507510E-02  -0.46507510E-02   0.76523274E-02   0.18617107E-02
  7704.3250      -0.15514100E-02   0.19844859      -0.15514100E-02  -0.15514100E-02   0.31725388E-02  -0.11997001E-01
  7704.6870      -0.23474878E-02   0.19765251      -0.23474878E-02  -0.23474878E-02  -0.10574950E-02  -0.81715499E-02
  7705.0200      -0.22863690E-02   0.19771363      -0.22863690E-02  -0.22863690E-02  -0.25066883E-02   0.39333065E-03
  7705.3810      -0.40871295E-02   0.19591287      -0.40871295E-02  -0.40871295E-02  -0.78452351E-03   0.24112261E-01
  7705.7490      -0.28582866E-02   0.19714171      -0.28582866E-02  -0.28582866E-02   0.15071150E-01   0.34060002E-01
  7706.1120       0.69298813E-02   0.20692988       0.69298813E-02   0.69298813E-02   0.24113338E-01   0.19696073E-01
  7706.4710       0.14551544E-01   0.21455154       0.14551544E-01   0.14551544E-01   0.29291715E-01   0.12239841E-01
  7706.8310       0.27990624E-01   0.22799062       0.27990624E-01   0.27990624E-01   0.32913784E-01  -0.25711222E-02
  7707.1960       0.38414037E-01   0.23841404       0.38414037E-01   0.38414037E-01   0.27427651E-01  -0.21907664E-01
  7707.5570       0.47903099E-01   0.24790310       0.47903099E-01   0.47903099E-01   0.17008820E-01  -0.31321458E-01
  7707.9150       0.50643379E-01   0.25064338       0.50643379E-01   0.50643379E-01   0.49075230E-02  -0.16543961E-01
  7708.2800       0.51451238E-01   0.25145124       0.51451238E-01   0.51451238E-01   0.50475364E-02  -0.55899266E-02
  7708.6460       0.54333128E-01   0.25433313       0.54333128E-01   0.54333128E-01   0.82128662E-03  -0.18963783E-01
  7708.9820       0.52027782E-01   0.25202778       0.52027782E-01   0.52027782E-01  -0.82650389E-02   0.27248354E-02
  7709.2900       0.49010443E-01   0.24901044       0.49010443E-01   0.49010443E-01   0.25760806E-02   0.26377279E-01
  7709.5960       0.53609495E-01   0.25360950       0.53609495E-01   0.53609495E-01   0.79306106E-02  -0.17217436E-01
  7709.9030       0.53871907E-01   0.25387191       0.53871907E-01   0.53871907E-01  -0.79782077E-02  -0.38564117E-01
  7710.2110       0.48702897E-01   0.24870290       0.48702897E-01   0.48702897E-01  -0.15786321E-01  -0.68050751E-03
  7710.5140       0.44226465E-01   0.24422646       0.44226465E-01   0.44226465E-01  -0.83939977E-02   0.20627530E-01
  7710.8230       0.43565771E-01   0.24356577       0.43565771E-01   0.43565771E-01  -0.31622727E-02   0.24192053E-01
  7711.1080       0.42348075E-01   0.24234807       0.42348075E-01   0.42348075E-01   0.59760815E-02   0.12228212E-01
  7711.4160       0.47109587E-01   0.24710959       0.47109587E-01   0.47109587E-01   0.40890572E-02  -0.19819480E-01
  7711.7250       0.44871023E-01   0.24487102       0.44871023E-01   0.44871023E-01  -0.62525377E-02  -0.67660160E-02
  7712.0290       0.43276782E-01   0.24327678       0.43276781E-01   0.43276781E-01  -0.58510620E-04  -0.71335860E-03
  7712.3330       0.44835449E-01   0.24483545       0.44835449E-01   0.44835449E-01  -0.66862597E-02  -0.22172580E-03
  7712.6440       0.39164732E-01   0.23916473       0.39164732E-01   0.39164732E-01  -0.19487199E-03   0.35665163E-01
  7712.9530       0.44714628E-01   0.24471463       0.44714628E-01   0.44714628E-01   0.15426142E-01   0.40978631E-01
  7713.2350       0.48281581E-01   0.24828158       0.48281581E-01   0.48281581E-01   0.24023499E-01   0.51317195E-01
  7713.5380       0.58768375E-01   0.25876837       0.58768375E-01   0.58768375E-01   0.45446701E-01   0.59930928E-01
  7713.8530       0.76367642E-01   0.27636764       0.76367642E-01   0.76367642E-01   0.61060812E-01   0.51520497E-01
  7714.1610       0.96809261E-01   0.29680926       0.96809261E-01   0.96809261E-01   0.77543970E-01   0.13324486E-01
  7714.4700       0.12421227       0.32421227       0.12421227       0.12421227       0.69282020E-01  -0.54650717E-01
  7714.7770       0.13948699       0.33948699       0.13948699       0.13948699       0.43879128E-01  -0.46484353E-01
  7715.0770       0.15084690       0.35084690       0.15084690       0.15084690       0.41066018E-01   0.10608175E-01
  7715.3860       0.16449619       0.36449619       0.16449619       0.16449619       0.50339507E-01   0.27040330E-02
  7715.6700       0.18069823       0.38069823       0.18069823       0.18069823       0.42669510E-01  -0.52695637E-01
  7715.9720       0.18950052       0.38950052       0.18950052       0.18950052       0.19459864E-01  -0.41950490E-01
  7716.1370       0.18978599       0.38978599       0.18978599       0.18978599       0.23078631E-01   0.35071093E-01
  7716.2550       0.19603178       0.39603178       0.19603178       0.19603178       0.29384983E-01   0.49835225E-01
  7716.3670       0.19654453       0.39654453       0.19654453       0.19654453       0.34540733E-01   0.21929031
  7716.4990       0.20445971       0.40445971       0.20445971       0.20445971       0.82891818E-01   0.17374850
  7716.6200       0.21751616       0.41751616       0.21751616       0.21751616       0.78499104E-01  -0.14295883
  7716.7330       0.22282850       0.42282850       0.22282850       0.22282850       0.49439452E-01  -0.21970079
  7716.8670       0.22972771       0.42972771       0.22972771       0.22972771       0.24233009E-01  -0.64232859E-01
  7716.9880       0.22900792       0.42900792       0.22900792       0.22900792       0.33060073E-01   0.11014111
  7717.1010       0.23746376       0.43746376       0.23746376       0.23746376       0.50006028E-01  -0.12510777E-02
  7717.2330       0.24125940       0.44125940       0.24125940       0.24125940       0.32753559E-01   0.10110324
  7717.3500       0.24561940       0.44561940       0.24561940       0.24561940       0.75180736E-01   0.15681751
  7717.4620       0.25847579       0.45847579       0.25847579       0.25847579       0.68664769E-01  -0.10537874
  7717.5920       0.26223628       0.46223627       0.26223627       0.26223627       0.49679081E-01   0.48739261E-01
  7717.7100       0.27079620       0.47079620       0.27079620       0.27079620       0.80752106E-01   0.18698736
  7717.8420       0.28242430       0.48242430       0.28242430       0.28242430       0.96425920E-01   0.10560964
  7717.9600       0.29490268       0.49490268       0.29490268       0.29490268       0.10715452      -0.27674667E-01
  7718.0740       0.30728415       0.50728415       0.30728415       0.30728415       0.90005398E-01  -0.10811735
  7718.2060       0.31704401       0.51704401       0.31704401       0.31704401       0.80557648E-01  -0.63933978E-01
  7718.3280       0.32774579       0.52774579       0.32774579       0.32774579       0.73766167E-01   0.20184985E-01
  7718.4410       0.33437906       0.53437906       0.33437906       0.33437906       0.85301119E-01   0.53587816E-01
  7718.5730       0.34864457       0.54864457       0.34864457       0.34864457       0.86895182E-01   0.90165891E-01
  7718.6930       0.35627664       0.55627664       0.35627664       0.35627664       0.10802292       0.16479899
  7718.8050       0.37370588       0.57370588       0.37370588       0.37370588       0.12512855      -0.30690851E-01
  7718.9360       0.38668288       0.58668288       0.38668288       0.38668288       0.10056505       0.22586635E-01
  7719.0560       0.39894771       0.59894771       0.39894771       0.39894771       0.13079779       0.11811323
  7719.1680       0.41702797       0.61702797       0.41702797       0.41702797       0.12796732       0.19469069E-01
  7719.2990       0.43004377       0.63004377       0.43004377       0.43004377       0.13552878       0.17074910
  7719.4200       0.45118122       0.65118122       0.45118122       0.45118122       0.17099609       0.76761208E-01
  7719.5350       0.47039885       0.67039885       0.47039885       0.47039885       0.15364442      -0.84851677E-01
  7719.6660       0.48897775       0.68897775       0.48897775       0.48897775       0.15012258      -0.97923914E-01
  7719.7880       0.50837986       0.70837986       0.50837986       0.50837986       0.12886967       0.11653826E-01
  7719.9010       0.51926212       0.71926212       0.51926212       0.51926212       0.15286123       0.35510898
  7720.0340       0.54598372       0.74598372       0.54598372       0.54598372       0.21622648       0.22348536
  7720.1540       0.57396742       0.77396742       0.57396742       0.57396742       0.20940302      -0.14003165
  7720.2670       0.59477462       0.79477462       0.59477462       0.59477462       0.18359911      -0.11310066
  7720.3970       0.61858200       0.81858200       0.61858200       0.61858200       0.18191956      -0.97598841E-01
  7720.5160       0.64007260       0.84007259       0.64007259       0.64007259       0.15929699      -0.36485701E-01
  7720.6460       0.65824695       0.85824695       0.65824695       0.65824695       0.17283462       0.19944787
  7720.7660       0.68328125       0.88328125       0.68328125       0.68328125       0.20915896       0.26323271
  7720.8790       0.70698099       0.90698099       0.70698099       0.70698099       0.23416784       0.57761769E-01
  7721.0130       0.74112071       0.94112071       0.74112071       0.74112071       0.22342612      -0.28915415
  7721.1330       0.76373123       0.96373122       0.76373122       0.76373122       0.16072269      -0.13384450
  7721.2460       0.77856910       0.97856909       0.77856909       0.77856909       0.19224035       0.33233459
  7721.3790       0.81102235        1.0110224       0.81102235       0.81102235       0.24247700       0.27632612
  7721.5000       0.84015825        1.0401583       0.84009621       0.84009621       0.26242718       0.44736090E-02
  7721.6120       0.87216789        2.2667993       0.87227956        2.0669110       0.24351935      -0.17283034
  7721.7440       0.89957698        2.2493324       0.89989339        2.0496488       0.22025658       0.13227363
  7721.8620       0.92723203        2.2338542       0.92773147        2.0343537       0.27658776      -0.69800060E-01
  7721.9740       0.96319216        2.2192816       0.96386532        2.0199548       0.20420257      -0.53160799
  7722.1040       0.97664905        2.2025110       0.97752385        2.0033858       0.14793863       0.59942247E-01
  7722.2260        1.0004727        2.1869127        1.0015367        1.9879768       0.21930801       0.31910235
  7722.3580        1.0323533        2.1701882        1.0336221        1.9714569       0.22899062      -0.13472438
  7722.4790        1.0584073        2.1549957        1.0598638        1.9564522       0.18522274      -0.28374802
  7722.5930        1.0758806        2.1408028        1.0775139        1.9424361       0.16230984      -0.25982816
  7722.7240        1.0981732        2.1246373        1.1000097        1.9264737       0.12156485      -0.14704406
  7722.8460        1.1066365        2.1097201        1.1086622        1.9117458       0.12510769       0.21643444
  7722.9580        1.1274484        2.0961422        1.1296478        1.8983416       0.17221050       0.20886562
  7723.0510        1.1419397        2.0849521        1.1442833        1.8872958       0.16792514      -0.14743266
  7723.2130        1.1702693        2.0656418        1.1728643        1.8682367       0.13461518      -0.14130764
  7723.4060        1.1897281        2.0429367        1.1926224        1.8458310       0.11776093      -0.16223189E-01
  7723.6030        1.2161961        2.0200958        1.2193959        1.8232956       0.12828813      -0.30871216E-01
  7723.8000        1.2402736        1.9975906        1.2437790        1.8010960       0.10559767      -0.14016421
  7724.0000        1.2581184        1.9750836        1.2619340        1.7788993       0.72642941E-01  -0.20962179
  7724.1980        1.2691855        1.9531377        1.2733082        1.7572604       0.22168202E-01  -0.16256980
  7724.3960        1.2668970        1.9315236        1.2713268        1.7359534       0.82653000E-02  -0.13394487E-01
  7724.5920        1.2724420        1.9104522        1.2771759        1.7151861       0.16890774E-01  -0.65207875E-01
  7724.7890        1.2735351        1.8895962        1.2785745        1.6946356      -0.17361395E-01  -0.11719466
  7725.0080        1.2652197        1.8667881        1.2705988        1.6721672      -0.31862203E-01  -0.24884974E-01
  7725.7230        1.2437758        1.7950470        1.2502639        1.6015350      -0.40603961E-01  -0.10705066E-01
  7726.5070        1.2043543        1.7210702        1.2120585        1.5287743      -0.47909096E-01   0.74460152E-03
  7727.3020        1.1681273        1.6509118        1.1770645        1.4598490      -0.39428235E-01   0.61248870E-02
  7728.0660        1.1428857        1.5879507        1.1530079        1.3980729      -0.38360398E-01   0.61308966E-02
  7728.8300        1.1095126        1.5292205        1.1208198        1.3405277      -0.30060225E-01   0.18654240E-01
  7729.5930        1.0969838        1.4746499        1.1094745        1.2871406      -0.98753737E-02   0.18580124E-01
  7730.3530        1.0944724        1.4242112        1.1081419        1.2378807      -0.17626959E-02   0.60375557E-02
  7731.1470        1.0942445        1.3755424        1.1091456        1.1904434      -0.49301211E-03   0.19870352E-02
  7731.9100        1.0937048        1.3325060        1.1097893        1.1485905       0.13311179E-02  -0.49746576E-02
  7732.6790        1.0962838        1.2926889        1.1135611        1.1099662      -0.81141875E-02  -0.67714947E-02
  7733.4410        1.0812820        1.2566172        1.0997412        1.0750763      -0.90360404E-02   0.42805265E-02
  7734.2140        1.0824135        1.2233222        1.1020716        1.0429803      -0.15435794E-02  -0.19250576E-02
  7734.9760        1.0789126        1.1936109        1.0997526        1.0144509      -0.11991004E-01  -0.90902851E-02
  7735.7750        1.0636955        1.1656205        1.0857749       0.98769985      -0.15733514E-01   0.68344628E-02
  7736.5390        1.0543211        1.1417397        1.0775855       0.96500409      -0.13087386E-02   0.72502850E-02
  7737.3090        1.0616879        1.1203793        1.0861466       0.94483798      -0.46115773E-02  -0.12566915E-01
  7738.0780        1.0472239        1.1016170        1.0728753       0.92726848      -0.20649220E-01  -0.90052761E-02
  7738.8440        1.0299914        1.0853398        1.0568309       0.91217931      -0.18434676E-01   0.67187875E-02
  7739.6160        1.0188714        1.0712269        1.0469083       0.89926392      -0.10315725E-01   0.27921756E-02
  7740.3880        1.0140639        1.0592708        1.0432983       0.88850521      -0.14123557E-01  -0.73345294E-02
  7741.1610       0.99705046        1.0493152        1.0274838       0.87974852      -0.21647573E-01  -0.65550848E-02
  7741.9520       0.98020709        1.0410646        1.0118673       0.87272481      -0.24375710E-01   0.45143387E-04
  7744.4520       0.91683000        1.0261181       0.95236790       0.86165601      -0.21499006E-01   0.16132827E-02
  7746.9690       0.87234657        1.0243113       0.91178850       0.86375321      -0.16281870E-01   0.15924515E-02
  7749.4530       0.83540437        1.0306736       0.87869912       0.87396838      -0.13535156E-01   0.10362840E-02
  7751.9350       0.80513099        1.0402842       0.85227548       0.88742866      -0.11135684E-01   0.11328756E-02
  7754.4550       0.77970367        1.0496605       0.83075684       0.90071366      -0.78685124E-02   0.20440789E-02
  7756.9490       0.76567827        1.0580705       0.82059977       0.91299204      -0.88667241E-03   0.27360246E-02
  7759.4300       0.77529248        1.0656028       0.83406217       0.92437250       0.57432098E-02   0.16944411E-02
  7761.9470       0.79438283        1.0724193       0.85705654       0.93509303       0.75821442E-02   0.10879050E-02
  7764.4680       0.81349132        1.0784388       0.88007526       0.94502278       0.11224075E-01   0.71066139E-03
  7766.9650       0.85070524        1.0836290       0.92116217       0.95408595       0.11148243E-01  -0.28012138E-04
  7769.4620       0.86916565        1.0880755       0.94349558       0.96240548       0.11084182E-01   0.25010436E-04
  7771.9870       0.90637000        1.0918409       0.98461636       0.97008724       0.11273845E-01  -0.11837787E-02
  7774.4880       0.92582799        1.0948707        1.0079536       0.97699623       0.51345107E-02  -0.18309726E-02
  7776.9970       0.93209390        1.0972354        1.0181111       0.98325254       0.21006726E-02  -0.68032728E-03
  7780.5620       0.93858748        1.0994819        1.0301342       0.99102861       0.10022029E-02  -0.85628574E-03
  7784.1490       0.93926165        1.1004885        1.0363720       0.99759887      -0.40234830E-02  -0.59617053E-03
  7787.6930       0.90989602        1.1003192        1.0125033        1.0029265      -0.32490892E-02   0.65530419E-03
  7791.2820       0.91608590        1.0990412        1.0242600        1.0072152       0.65080173E-03   0.26195543E-03
  7794.8620       0.91456162        1.0967295        1.0282885        1.0104563      -0.13711307E-02  -0.56794651E-03
  7798.4360       0.90627683        1.0934611        1.0255472        1.0127314      -0.34122876E-02  -0.27273493E-03
  7802.0150       0.89015353        1.0892988        1.0149751        1.0141204      -0.33220037E-02   0.13335555E-04
  7805.6140       0.88243149        1.0842892        1.0128354        1.0146931      -0.33165650E-02   0.10017447E-03
  7809.2040       0.86631074        1.0785420        1.0022829        1.0145142      -0.26018494E-02   0.46722042E-03
  7812.8090       0.86371118        1.0720908        1.0052749        1.0136545       0.45085990E-04  -0.18466570E-04
  7816.3810       0.86663432        1.0650993        1.0137385        1.0122035      -0.27343840E-02  -0.50788269E-03
  7819.9940       0.84406463        1.0574946       0.99677277        1.0102027      -0.36040511E-02   0.43884247E-04
  7823.6050       0.84059866        1.0494328       0.99890767        1.0077418      -0.24173642E-02  -0.11058264E-03
  7827.2230       0.82658951        1.0409675       0.99051026        1.0048883      -0.44034530E-02   0.31506325E-04
  7830.8140       0.80885417        1.0322555       0.97834477        1.0017461      -0.21902351E-02   0.74790690E-03
  7834.4380       0.81078696        1.0232251       0.98589861       0.99833675       0.99269527E-03  -0.80913436E-04
  7838.0600       0.81604724        1.0140354       0.99677683       0.99476496      -0.27765338E-02  -0.39919995E-03
  7841.6900       0.79065154        1.0047361       0.97701148       0.99109602      -0.19023028E-02   0.82203689E-03
  7845.3200       0.80223652       0.99542304       0.99422681       0.98741334       0.31914540E-02   0.14032388E-02
