# XDI/1.0 Athena/0.9.26
# Element.edge:                  K
# Element.symbol:                Co
# Column.1:                      energy eV
# Column.2:                      norm
# Column.3:                      nbkg
# Column.4:                      flat
# Column.5:                      fbkg
# Column.6:                      nder
# Column.7:                      nsec
# Athena.e0:                     7721.54
# Athena.eshift:                 0
# Athena.rbkg:                   1.0
# Athena.importance:             1
# Athena.standard:               None
# Athena.bkg_kweight:            3
# Athena.edge_step:              1.1960666
# Athena.fixed_step:             no
# Athena.pre_edge_range:         -82.964 -19.904
# Athena.pre_edge_line:          0.223493 + 0.000185505 * E
# Athena.normalization_range:    45 125.256
# Athena.post_edge_polynomial:   15.779668 - 0.00167424 * E + 0 * E^2 + 0 * E^3
# Athena.spline_range_energy:    0.000 125.180
# Athena.clamps:                 0 24
# Athena.spline_range_k:         0.000 5.732
# Athena.kweight:                2
# Athena.window:                 hanning
# Athena.phase_correction:       no
# Athena.k_range:                .4 5.35
# Athena.dk:                     .5
# Athena.r_range:                .4 5.1
# Athena.dr:                     .5
# Athena.window:                 hanning
# Athena.plot_multiplier:        1
# Athena.y_offset:               0.2
# ///
#------------------------
#   e         norm        nbkg        flat        fbkg        nder        nsec
  7600.0670      -0.21391308      -0.13913085E-01  -0.21391309      -0.21391309       0.12023614E-01  -0.49598907E-03
  7610.6410      -0.86775381E-01   0.11322462      -0.86775383E-01  -0.86775383E-01   0.67790260E-02  -0.36882433E-03
  7624.5560      -0.47901512E-01   0.15209849      -0.47901513E-01  -0.47901513E-01   0.29914756E-02  -0.20623928E-03
  7637.2000      -0.73247810E-02   0.19267522      -0.73247812E-02  -0.73247812E-02   0.13015171E-02  -0.13092932E-03
  7649.6990      -0.15177469E-01   0.18482253      -0.15177469E-01  -0.15177469E-01  -0.30048027E-03   0.92068216E-04
  7662.1990      -0.14836487E-01   0.18516351      -0.14836488E-01  -0.14836488E-01   0.36031304E-02   0.19152070E-04
  7674.7330       0.75023297E-01   0.27502330       0.75023299E-01   0.75023299E-01   0.17897265E-03  -0.27354978E-03
  7687.3310      -0.10338547E-01   0.18966145      -0.10338547E-01  -0.10338547E-01  -0.32717226E-02   0.65851906E-05
  7700.0100      -0.76760352E-02   0.19232396      -0.76760353E-02  -0.76760353E-02   0.34542651E-03   0.75134680E-03
  7700.3880      -0.58283128E-02   0.19417169      -0.58283129E-02  -0.58283129E-02   0.65386125E-02   0.60709202E-02
  7700.7190      -0.30401589E-02   0.19695984      -0.30401589E-02  -0.30401590E-02   0.46497089E-02  -0.16732205E-01
  7701.0710      -0.26525616E-02   0.19734744      -0.26525616E-02  -0.26525616E-02  -0.48894838E-02  -0.45028080E-02
  7701.4340      -0.65361398E-02   0.19346386      -0.65361400E-02  -0.65361400E-02   0.14302012E-02   0.15297423E-01
  7701.7980      -0.16128053E-02   0.19838719      -0.16128053E-02  -0.16128053E-02   0.62317428E-02  -0.87885441E-02
  7702.1550      -0.20430533E-02   0.19795695      -0.20430533E-02  -0.20430533E-02  -0.49063391E-02  -0.18344100E-01
  7702.5150      -0.51306504E-02   0.19486935      -0.51306505E-02  -0.51306505E-02  -0.69209772E-02   0.51270145E-02
  7702.8790      -0.70538408E-02   0.19294616      -0.70538409E-02  -0.70538409E-02  -0.11943805E-02   0.10358179E-01
  7703.2420      -0.59989650E-02   0.19400103      -0.59989652E-02  -0.59989652E-02   0.60941879E-03   0.49542237E-02
  7703.6000      -0.66144498E-02   0.19338555      -0.66144500E-02  -0.66144500E-02   0.23776147E-02   0.95679026E-02
  7703.9610      -0.42894600E-02   0.19571054      -0.42894601E-02  -0.42894602E-02   0.74887407E-02   0.34296817E-02
  7704.3250      -0.11851128E-02   0.19881489      -0.11851128E-02  -0.11851128E-02   0.48641339E-02  -0.14556211E-01
  7704.6870      -0.75809881E-03   0.19924190      -0.75809883E-03  -0.75809884E-03  -0.30790686E-02  -0.14535120E-01
  7705.0200      -0.33250655E-02   0.19667493      -0.33250656E-02  -0.33250656E-02  -0.52377742E-02   0.56000798E-02
  7705.3810      -0.43931141E-02   0.19560689      -0.43931142E-02  -0.43931142E-02   0.80738675E-03   0.31471722E-01
  7705.7490      -0.27364806E-02   0.19726352      -0.27364806E-02  -0.27364806E-02   0.17705111E-01   0.32411557E-01
  7706.1120       0.85493219E-02   0.20854932       0.85493221E-02   0.85493221E-02   0.24500235E-01   0.14401769E-01
  7706.4710       0.14952689E-01   0.21495269       0.14952689E-01   0.14952689E-01   0.28103188E-01   0.10327285E-01
  7706.8310       0.28755514E-01   0.22875551       0.28755514E-01   0.28755514E-01   0.31925553E-01  -0.35467440E-02
  7707.1960       0.38098715E-01   0.23809872       0.38098715E-01   0.38098715E-01   0.25531798E-01  -0.19546216E-01
  7707.5570       0.47291599E-01   0.24729160       0.47291600E-01   0.47291600E-01   0.17735000E-01  -0.26415801E-01
  7707.9150       0.50850180E-01   0.25085018       0.50850181E-01   0.50850181E-01   0.65388372E-02  -0.19360989E-01
  7708.2800       0.52019179E-01   0.25201918       0.52019180E-01   0.52019180E-01   0.37370050E-02  -0.10086084E-01
  7708.6460       0.53581930E-01   0.25358193       0.53581932E-01   0.53581932E-01  -0.83409030E-03  -0.14797340E-01
  7708.9820       0.51433647E-01   0.25143365       0.51433648E-01   0.51433648E-01  -0.66507274E-02   0.68033087E-02
  7709.2900       0.49298862E-01   0.24929886       0.49298863E-01   0.49298863E-01   0.35472405E-02   0.22177307E-01
  7709.5960       0.53611653E-01   0.25361165       0.53611654E-01   0.53611654E-01   0.69661390E-02  -0.15764810E-01
  7709.9030       0.53569105E-01   0.25356911       0.53569106E-01   0.53569106E-01  -0.61165878E-02  -0.35831960E-01
  7710.2110       0.49849951E-01   0.24984995       0.49849953E-01   0.49849953E-01  -0.15070516E-01  -0.64614570E-02
  7710.5140       0.44361020E-01   0.24436102       0.44361021E-01   0.44361021E-01  -0.10064538E-01   0.20411930E-01
  7710.8230       0.43690454E-01   0.24369046       0.43690455E-01   0.43690455E-01  -0.25784151E-02   0.29937547E-01
  7711.1080       0.42829441E-01   0.24282944       0.42829442E-01   0.42829442E-01   0.77183650E-02   0.10029098E-01
  7711.4160       0.48267445E-01   0.24826745       0.48267446E-01   0.48267446E-01   0.33688401E-02  -0.22261349E-01
  7711.7250       0.44908015E-01   0.24490802       0.44908017E-01   0.44908017E-01  -0.60168873E-02  -0.12788441E-01
  7712.0290       0.44579093E-01   0.24457909       0.44579094E-01   0.44579094E-01  -0.44704745E-02  -0.90320162E-02
  7712.3330       0.42189967E-01   0.24218997       0.42189968E-01   0.42189968E-01  -0.11508353E-01   0.16213490E-01
  7712.6440       0.37501456E-01   0.23750146       0.37501456E-01   0.37501456E-01   0.55008221E-02   0.45318062E-01
  7712.9530       0.45600477E-01   0.24560048       0.45600478E-01   0.45600478E-01   0.16588846E-01   0.26221138E-01
  7713.2350       0.47305463E-01   0.24730546       0.47305464E-01   0.47305464E-01   0.20997515E-01   0.42500441E-01
  7713.5380       0.57884023E-01   0.25788402       0.57884024E-01   0.57884024E-01   0.41451604E-01   0.64508856E-01
  7713.8530       0.72922555E-01   0.27292256       0.72922556E-01   0.72922556E-01   0.60863987E-01   0.50430275E-01
  7714.1610       0.95802287E-01   0.29580229       0.95802289E-01   0.95802289E-01   0.72869665E-01   0.11140466E-01
  7714.4700       0.11788314       0.31788314       0.11788314       0.11788314       0.67737655E-01  -0.34814896E-01
  7714.7770       0.13752868       0.33752869       0.13752869       0.13752869       0.51423689E-01  -0.56270302E-01
  7715.0770       0.14909732       0.34909732       0.14909732       0.14909732       0.33581581E-01  -0.15896825E-01
  7715.3860       0.15797987       0.35797987       0.15797987       0.15797987       0.41742523E-01   0.22585360E-01
  7715.6700       0.17385063       0.37385064       0.17385064       0.17385064       0.46974699E-01  -0.19761195E-01
  7715.9720       0.18550704       0.38550704       0.18550704       0.18550704       0.30162463E-01  -0.72472276E-01
  7716.1370       0.18793650       0.38793651       0.18793651       0.18793651       0.13130147E-01   0.89195085E-02
  7716.2550       0.18922287       0.38922287       0.18922287       0.18922287       0.32686684E-01   0.19262058
  7716.3670       0.19545444       0.39545445       0.19545445       0.19545445       0.57432881E-01   0.82972431E-01
  7716.4990       0.20323649       0.40323650       0.20323650       0.20323650       0.52931957E-01   0.15876118E-01
  7716.6200       0.20884623       0.40884623       0.20884623       0.20884623       0.61449539E-01  -0.13452085E-01
  7716.7330       0.21761569       0.41761569       0.21761569       0.21761569       0.49784169E-01  -0.99508757E-01
  7716.8670       0.22114292       0.42114292       0.22114292       0.22114292       0.36870876E-01  -0.43471510E-01
  7716.9880       0.22701776       0.42701776       0.22701776       0.22701776       0.38698934E-01   0.31731619E-02
  7717.1010       0.23019847       0.43019847       0.23019847       0.23019847       0.37613396E-01   0.62746582E-01
  7717.2330       0.23623304       0.43623305       0.23623305       0.23623305       0.54071846E-01   0.20916828
  7717.3500       0.24366236       0.44366236       0.24366236       0.24366236       0.89696298E-01  -0.62790286E-02
  7717.4620       0.25677349       0.45677350       0.25677350       0.25677350       0.52633949E-01  -0.21446593
  7717.5920       0.25639977       0.45639978       0.25639978       0.25639978       0.37795542E-01   0.15276062
  7717.7100       0.26614679       0.46614679       0.26614679       0.26614679       0.90518582E-01   0.17617235
  7717.8420       0.27902942       0.47902942       0.27902942       0.27902942       0.81838631E-01  -0.99774720E-01
  7717.9600       0.28660645       0.48660645       0.28660645       0.28660645       0.65574902E-01   0.12007925
  7718.0740       0.29424279       0.49424280       0.29424280       0.29424280       0.10969702       0.18269848
  7718.2060       0.31359191       0.51359192       0.31359192       0.31359192       0.11051873      -0.19422595
  7718.3280       0.32231455       0.52231456       0.32231456       0.32231456       0.60363628E-01  -0.11679898
  7718.4410       0.32777736       0.52777737       0.32777737       0.32777737       0.83070969E-01   0.18592912
  7718.5730       0.34266694       0.54266695       0.34266695       0.34266695       0.10591626      -0.28419546E-01
  7718.6930       0.35446826       0.55446827       0.35446827       0.35446827       0.75909243E-01  -0.76801518E-01
  7718.8050       0.36027788       0.56027789       0.36027789       0.36027789       0.88098311E-01   0.27710430
  7718.9360       0.37587615       0.57587616       0.37587616       0.37587616       0.14324559       0.30693691
  7719.0560       0.39623253       0.59623254       0.39623254       0.39623254       0.16513947      -0.76640335E-01
  7719.1680       0.41418851       0.61418852       0.41418852       0.41418852       0.12546503      -0.30231213
  7719.2990       0.42672053       0.62672054       0.42672054       0.42672054       0.91677627E-01   0.76384103E-01
  7719.4200       0.43729127       0.63729128       0.43729128       0.43729128       0.14471382       0.23314599
  7719.5350       0.46087299       0.66087300       0.46087300       0.46087300       0.14670008      -0.89185090E-01
  7719.6660       0.47337949       0.67337950       0.47337950       0.47337950       0.12277429       0.83259121E-01
  7719.7880       0.49193489       0.69193490       0.49193490       0.49193490       0.16776464       0.30900213
  7719.9010       0.51280418       0.71280419       0.51280419       0.51280419       0.19538979       0.36148090E-01
  7720.0340       0.54000078       0.74000079       0.54000079       0.54000079       0.17665707       0.82639127E-01
  7720.1540       0.55749842       0.75749843       0.55749843       0.55749843       0.21629749       0.92914683E-01
  7720.2670       0.59039809       0.79039811       0.59039811       0.59039811       0.19830619      -0.35780272
  7720.3970       0.60568683       0.80568684       0.60568684       0.60568684       0.12935143      -0.14946139
  7720.5160       0.62260660       0.82260661       0.62260661       0.62260661       0.16109030       0.25577871
  7720.6460       0.64579831       0.84579833       0.64579833       0.64579833       0.19304033       0.31956441
  7720.7660       0.67086668       0.87086670       0.67086670       0.67086670       0.24098141       0.11657476
  7720.8790       0.70194698       0.90194699       0.70194699       0.70194699       0.22020225      -0.19709505
  7721.0130       0.72525663       0.92525665       0.72525665       0.72525665       0.19229893      -0.72141792E-01
  7721.1330       0.75079091       0.95079092       0.75079092       0.75079092       0.20187823       0.10997326
  7721.2460       0.77229426       0.97229428       0.77229428       0.77229428       0.21792270       0.14139231
  7721.3790       0.80439989        1.0043999       0.80439991       0.80439991       0.23666074       0.18933554
  7721.5000       0.83240609        1.0324061       0.83234389       0.83234389       0.26601392       0.35394094E-01
  7721.6120       0.86638113        2.2707481       0.86649308        2.0708600       0.24490757      -0.17248628
  7721.7440       0.89216354        2.2532205       0.89248073        2.0535377       0.22392727       0.99315069E-01
  7721.8620       0.92236295        2.2376886       0.92286362        2.0381892       0.26973633      -0.35610203E-01
  7721.9740       0.95420289        2.2230653       0.95487771        2.0237401       0.21573692      -0.45633364
  7722.1040       0.97457129        2.2062363       0.97544824        2.0071133       0.15930359       0.78447247E-02
  7722.2260       0.99434740        2.1905837       0.99541405        1.9916503       0.21771379       0.27357468
  7722.3580        1.0298706        2.1738008        1.0311425        1.9750726       0.22879156      -0.12431578
  7722.4790        1.0522317        2.1585553        1.0536917        1.9600153       0.18626190      -0.27292407
  7722.5930        1.0736421        2.1443128        1.0752794        1.9459501       0.16465440      -0.24898542
  7722.7240        1.0925720        2.1280907        1.0944130        1.9299317       0.12526047      -0.13246133
  7722.8460        1.1053330        2.1131214        1.1073637        1.9151521       0.13114169       0.19493641
  7722.9580        1.1232591        2.0994959        1.1254640        1.9017007       0.17087559       0.22268379
  7723.0510        1.1403625        2.0882666        1.1427120        1.8906160       0.17679186      -0.12117547
  7723.2130        1.1683411        2.0688885        1.1709424        1.8714898       0.13997585      -0.15006168
  7723.4060        1.1900540        2.0461036        1.1929554        1.8490050       0.12351997      -0.26786747E-01
  7723.6030        1.2165139        2.0231823        1.2197216        1.8263900       0.12952902      -0.44299038E-01
  7723.8000        1.2410884        2.0005977        1.2446024        1.8041117       0.10606615      -0.13930352
  7724.0000        1.2586221        1.9780113        1.2624471        1.7818362       0.74225519E-01  -0.17976681
  7724.1980        1.2706301        1.9559877        1.2747630        1.7601205       0.34518955E-01  -0.15187203
  7724.3960        1.2722916        1.9342970        1.2767324        1.7387377       0.14084196E-01  -0.52613994E-01
  7724.5920        1.2761793        1.9131508        1.2809248        1.7178963       0.13789041E-01  -0.47669398E-01
  7724.7890        1.2777107        1.8922206        1.2827625        1.6972724      -0.46498770E-02  -0.11642427
  7725.0080        1.2742450        1.8693312        1.2796373        1.6747235      -0.34643455E-01  -0.42368235E-01
  7725.7230        1.2453537        1.7973334        1.2518578        1.6038374      -0.44221809E-01  -0.90389196E-02
  7726.5070        1.2079565        1.7230900        1.2156796        1.5308131      -0.48192795E-01   0.77254536E-03
  7727.3020        1.1692573        1.6526765        1.1782166        1.4616358      -0.43001960E-01   0.50074571E-02
  7728.0660        1.1409164        1.5894846        1.1510636        1.3996318      -0.40386170E-01   0.95513887E-02
  7728.8300        1.1075472        1.5305371        1.1188824        1.3418722      -0.28407438E-01   0.21039773E-01
  7729.5930        1.0975383        1.4757626        1.1100598        1.2882840      -0.82584354E-02   0.16708846E-01
  7730.3530        1.0949696        1.4251334        1.1086729        1.2388366      -0.29598654E-02   0.44524386E-02
  7731.1470        1.0929386        1.3762785        1.1078764        1.1912163      -0.13393459E-02   0.39027906E-02
  7731.9100        1.0928843        1.3330755        1.1090084        1.1491997       0.31167797E-02  -0.42134584E-02
  7732.6790        1.0977135        1.2931022        1.1150334        1.1104220      -0.77943642E-02  -0.82162557E-02
  7733.4410        1.0809511        1.2568867        1.0994558        1.0753913      -0.94623079E-02   0.41759136E-02
  7734.2140        1.0831889        1.2234567        1.1028955        1.0431633      -0.13843369E-02  -0.24913306E-02
  7734.9760        1.0788262        1.1936227        1.0997176        1.0145142      -0.13286500E-01  -0.92342219E-02
  7735.7750        1.0624487        1.1655143        1.0845825       0.98764808      -0.15798957E-01   0.75406314E-02
  7736.5390        1.0541324        1.1415304        1.0774541       0.96485208      -0.15004935E-02   0.68414662E-02
  7737.3090        1.0601469        1.1200752        1.0846659       0.94459416      -0.53041481E-02  -0.12261464E-01
  7738.0780        1.0459693        1.1012271        1.0716840       0.92694179      -0.20370887E-01  -0.82517429E-02
  7738.8440        1.0288776        1.0848727        1.0557833       0.91177844      -0.17970573E-01   0.67790712E-02
  7739.6160        1.0183306        1.0706902        1.0464367       0.89879632      -0.99446757E-02   0.21021604E-02
  7740.3880        1.0135230        1.0586721        1.0428295       0.88797855      -0.14724838E-01  -0.71665310E-02
  7741.1610       0.99558068        1.0486616        1.0260891       0.87916997      -0.21016966E-01  -0.56687440E-02
  7741.9520       0.98065249        1.0403620        1.0123908       0.87210027      -0.23590753E-01  -0.26819615E-03
  7744.4520       0.91794351        1.0253028       0.95356905       0.86092829      -0.21899600E-01   0.13903968E-02
  7746.9690       0.87078220        1.0234363       0.91032138       0.86297543      -0.16615133E-01   0.17732552E-02
  7749.4530       0.83485124        1.0297788       0.87825275       0.87318031      -0.13031550E-01   0.10926656E-02
  7751.9350       0.80606752        1.0393946       0.85332826       0.88665536      -0.11188955E-01   0.10038359E-02
  7754.4550       0.77888408        1.0487911       0.83006314       0.89997012      -0.80103630E-02   0.20523115E-02
  7756.9490       0.76590356        1.0572330       0.82096050       0.91228994      -0.89866554E-03   0.26421660E-02
  7759.4300       0.77441322        1.0648076       0.83332783       0.92372220       0.51344126E-02   0.16935009E-02
  7761.9470       0.79156535        1.0716765       0.85439361       0.93450472       0.75654517E-02   0.12096698E-02
  7764.4680       0.81252797        1.0777567       0.87927609       0.94450478       0.11228729E-01   0.72538153E-03
  7766.9650       0.84791112        1.0830137       0.91854179       0.95364437       0.11205416E-01   0.75063581E-04
  7769.4620       0.86848782        1.0875326       0.94300104       0.96204577       0.11603597E-01   0.38123183E-04
  7771.9870       0.90618438        1.0913752       0.98462369       0.96981452       0.11396871E-01  -0.12809996E-02
  7774.4880       0.92576849        1.0944845        1.0080966       0.97681254       0.51652924E-02  -0.18717170E-02
  7776.9970       0.93206249        1.0969304        1.0182918       0.98315969       0.20195687E-02  -0.69683770E-03
  7780.5620       0.93803535        1.0992925        1.0298078       0.99106489       0.93270018E-03  -0.84312887E-03
  7784.1490       0.93873316        1.1004119        1.0360830       0.99776169      -0.40104890E-02  -0.55518982E-03
  7787.6930       0.90943655        1.1003470        1.0122969        1.0032073      -0.30263584E-02   0.67815621E-03
  7791.2820       0.91714615        1.0991636        1.0255870        1.0076044       0.82679924E-03   0.22369962E-03
  7794.8620       0.91536388        1.0969314        1.0293712        1.0109387      -0.14226558E-02  -0.58631671E-03
  7798.4360       0.90696847        1.0937238        1.0265330        1.0132883      -0.33677105E-02  -0.27179821E-03
  7802.0150       0.89127464        1.0896000        1.0164041        1.0147294      -0.33668285E-02  -0.11730843E-04
  7805.6140       0.88280137        1.0846023        1.0135268        1.0153277      -0.34519145E-02   0.11068395E-03
  7809.2040       0.86645883        1.0788367        1.0027663        1.0151441      -0.25711215E-02   0.49837523E-03
  7812.8090       0.86430216        1.0723324        1.0062150        1.0142453       0.13389531E-03  -0.41461264E-04
  7816.3810       0.86741980        1.0652505        1.0148867        1.0127174      -0.28686890E-02  -0.55134474E-03
  7819.9940       0.84369062        1.0575120       0.99677533        1.0105967      -0.38275166E-02   0.19705597E-04
  7823.6050       0.83976982        1.0492700       0.99846921        1.0079694      -0.27263358E-02  -0.76729509E-04
  7827.2230       0.82398194        1.0405738       0.98830691        1.0048988      -0.43821943E-02   0.94501950E-04
  7830.8140       0.80817858        1.0315786       0.97808714        1.0014872      -0.20450712E-02   0.71624839E-03
  7834.4380       0.80922675        1.0222040       0.98477022       0.99774745       0.78553789E-03  -0.52179685E-04
  7838.0600       0.81387058        1.0126077       0.99504585       0.99378298      -0.24231652E-02  -0.34184648E-03
  7841.6900       0.79165396        1.0028343       0.97847346       0.98965374      -0.16935328E-02   0.71024544E-03
  7845.3200       0.80157554       0.99297622       0.99403927       0.98543994       0.27332167E-02   0.12194902E-02
