# XDI/1.0 Athena/0.9.26
# Element.edge:                  K
# Element.symbol:                Co
# Column.1:                      energy eV
# Column.2:                      norm
# Column.3:                      nbkg
# Column.4:                      flat
# Column.5:                      fbkg
# Column.6:                      nder
# Column.7:                      nsec
# Athena.e0:                     7721.54
# Athena.eshift:                 0
# Athena.rbkg:                   1.0
# Athena.importance:             1
# Athena.standard:               None
# Athena.bkg_kweight:            3
# Athena.edge_step:              1.1935502
# Athena.fixed_step:             no
# Athena.pre_edge_range:         -82.964 -19.904
# Athena.pre_edge_line:          0.085179 + 0.000203587 * E
# Athena.normalization_range:    45 125.256
# Athena.post_edge_polynomial:   15.620167 - 0.00165374 * E + 0 * E^2 + 0 * E^3
# Athena.spline_range_energy:    0.000 125.180
# Athena.clamps:                 0 24
# Athena.spline_range_k:         0.000 5.732
# Athena.kweight:                2
# Athena.window:                 hanning
# Athena.phase_correction:       no
# Athena.k_range:                .4 5.35
# Athena.dk:                     .5
# Athena.r_range:                .4 5.1
# Athena.dr:                     .5
# Athena.window:                 hanning
# Athena.plot_multiplier:        1
# Athena.y_offset:               0.2
# ///
#------------------------
#   e         norm        nbkg        flat        fbkg        nder        nsec
  7600.0670      -0.21721567      -0.17215668E-01  -0.21721567      -0.21721567       0.12650002E-01  -0.54218378E-03
  7610.6410      -0.83454550E-01   0.11654545      -0.83454550E-01  -0.83454550E-01   0.69169506E-02  -0.39972998E-03
  7624.5560      -0.47826467E-01   0.15217353      -0.47826467E-01  -0.47826467E-01   0.28610142E-02  -0.21174010E-03
  7637.2000      -0.74688730E-02   0.19253113      -0.74688730E-02  -0.74688730E-02   0.12933453E-02  -0.13002764E-03
  7649.6990      -0.15307886E-01   0.18469211      -0.15307886E-01  -0.15307886E-01  -0.40827078E-03   0.10079198E-03
  7662.1990      -0.17675234E-01   0.18232477      -0.17675234E-01  -0.17675234E-01   0.38130440E-02   0.27146967E-04
  7674.7330       0.80147857E-01   0.28014786       0.80147856E-01   0.80147856E-01   0.27132639E-03  -0.29173375E-03
  7687.3310      -0.10856259E-01   0.18914374      -0.10856259E-01  -0.10856259E-01  -0.35188086E-02   0.20230492E-05
  7700.0100      -0.87970674E-02   0.19120293      -0.87970673E-02  -0.87970673E-02   0.32246300E-03   0.97239895E-03
  7700.3880      -0.66458599E-02   0.19335414      -0.66458599E-02  -0.66458599E-02   0.91778045E-02   0.62367606E-02
  7700.7190      -0.22900040E-02   0.19771000      -0.22900040E-02  -0.22900040E-02   0.47443263E-02  -0.20991365E-01
  7701.0710      -0.34054851E-02   0.19659451      -0.34054851E-02  -0.34054851E-02  -0.51592978E-02  -0.33972864E-02
  7701.4340      -0.59789019E-02   0.19402110      -0.59789019E-02  -0.59789019E-02   0.23152665E-02   0.15006284E-01
  7701.7980      -0.17222864E-02   0.19827771      -0.17222863E-02  -0.17222864E-02   0.57502707E-02  -0.89222759E-02
  7702.1550      -0.18329567E-02   0.19816704      -0.18329567E-02  -0.18329567E-02  -0.41176944E-02  -0.17171593E-01
  7702.5150      -0.46746733E-02   0.19532533      -0.46746732E-02  -0.46746733E-02  -0.65617614E-02   0.16063743E-02
  7702.8790      -0.65836719E-02   0.19341633      -0.65836719E-02  -0.65836719E-02  -0.29546795E-02   0.82343891E-02
  7703.2420      -0.68227252E-02   0.19317727      -0.68227252E-02  -0.68227252E-02  -0.57536051E-03   0.70973270E-02
  7703.6000      -0.69985068E-02   0.19300149      -0.69985068E-02  -0.69985068E-02   0.21624933E-02   0.14116837E-01
  7703.9610      -0.52678925E-02   0.19473211      -0.52678925E-02  -0.52678925E-02   0.95746453E-02   0.32647493E-02
  7704.3250      -0.56888975E-04   0.19994311      -0.56888975E-04  -0.56888995E-04   0.45294365E-02  -0.17973888E-01
  7704.6870      -0.19795216E-02   0.19802048      -0.19795216E-02  -0.19795216E-02  -0.34743974E-02  -0.11296054E-01
  7705.0200      -0.24715952E-02   0.19752840      -0.24715952E-02  -0.24715952E-02  -0.33213211E-02   0.49119334E-02
  7705.3810      -0.42845185E-02   0.19571548      -0.42845184E-02  -0.42845185E-02  -0.65515609E-04   0.28364479E-01
  7705.7490      -0.25193561E-02   0.19748064      -0.25193560E-02  -0.25193561E-02   0.17356384E-01   0.34979406E-01
  7706.1120       0.84029981E-02   0.20840300       0.84029980E-02   0.84029980E-02   0.25504430E-01   0.16083276E-01
  7706.4710       0.15894842E-01   0.21589484       0.15894842E-01   0.15894842E-01   0.28968509E-01   0.10917113E-01
  7706.8310       0.29231356E-01   0.22923136       0.29231356E-01   0.29231356E-01   0.33353834E-01  -0.16909586E-02
  7707.1960       0.40076372E-01   0.24007637       0.40076372E-01   0.40076372E-01   0.27742564E-01  -0.23969884E-01
  7707.5570       0.49372458E-01   0.24937246       0.49372458E-01   0.49372458E-01   0.15951699E-01  -0.35733866E-01
  7707.9150       0.51545643E-01   0.25154564       0.51545643E-01   0.51545643E-01   0.20499144E-02  -0.19326493E-01
  7708.2800       0.50854546E-01   0.25085455       0.50854546E-01   0.50854546E-01   0.19786443E-02  -0.50451954E-02
  7708.6460       0.52992032E-01   0.25299203       0.52992032E-01   0.52992032E-01  -0.16381234E-02  -0.12730502E-01
  7708.9820       0.49704583E-01   0.24970458       0.49704583E-01   0.49704583E-01  -0.69581678E-02   0.93537672E-02
  7709.2900       0.48510972E-01   0.24851097       0.48510972E-01   0.48510972E-01   0.43857026E-02   0.19725314E-01
  7709.5960       0.52397405E-01   0.25239740       0.52397404E-01   0.52397404E-01   0.51531748E-02  -0.16604959E-01
  7709.9030       0.51669868E-01   0.25166987       0.51669868E-01   0.51669868E-01  -0.57931373E-02  -0.29919754E-01
  7710.2110       0.48834625E-01   0.24883462       0.48834625E-01   0.48834625E-01  -0.13247474E-01  -0.10834535E-02
  7710.5140       0.43575662E-01   0.24357566       0.43575662E-01   0.43575661E-01  -0.64551274E-02   0.22342021E-01
  7710.8230       0.44884087E-01   0.24488409       0.44884087E-01   0.44884087E-01   0.42584279E-03   0.25254698E-01
  7711.1080       0.43828612E-01   0.24382861       0.43828612E-01   0.43828612E-01   0.85461631E-02   0.14620738E-01
  7711.4160       0.49951962E-01   0.24995196       0.49951962E-01   0.49951962E-01   0.90959405E-02  -0.21630927E-01
  7711.7250       0.49440808E-01   0.24944081       0.49440807E-01   0.49440807E-01  -0.48001187E-02  -0.17495646E-01
  7712.0290       0.47009489E-01   0.24700949       0.47009489E-01   0.47009489E-01  -0.16288907E-02   0.86764034E-03
  7712.3330       0.48450442E-01   0.24845044       0.48450442E-01   0.48450442E-01  -0.42725933E-02   0.97304773E-02
  7712.6440       0.44381844E-01   0.24438184       0.44381844E-01   0.44381844E-01   0.43553529E-02   0.38272903E-01
  7712.9530       0.51150761E-01   0.25115076       0.51150761E-01   0.51150761E-01   0.19456607E-01   0.37703790E-01
  7713.2350       0.55880699E-01   0.25588070       0.55880699E-01   0.55880699E-01   0.26638293E-01   0.47113973E-01
  7713.5380       0.66734162E-01   0.26673416       0.66734162E-01   0.66734162E-01   0.47018281E-01   0.57030607E-01
  7713.8530       0.84937997E-01   0.28493800       0.84937996E-01   0.84937996E-01   0.61883208E-01   0.44901926E-01
  7714.1610       0.10528740       0.30528740       0.10528740       0.10528740       0.74992181E-01   0.13482536E-01
  7714.4700       0.13120817       0.33120817       0.13120817       0.13120817       0.70201932E-01  -0.45024047E-01
  7714.7770       0.14853179       0.34853179       0.14853179       0.14853179       0.47257368E-01  -0.49074573E-01
  7715.0770       0.15989339       0.35989339       0.15989339       0.15989339       0.40413667E-01   0.74323333E-02
  7715.3860       0.17314371       0.37314371       0.17314371       0.17314371       0.51783659E-01   0.10330776E-01
  7715.6700       0.19060110       0.39060110       0.19060110       0.19060110       0.46539817E-01  -0.55357221E-01
  7715.9720       0.20041605       0.40041605       0.20041605       0.20041605       0.19344327E-01  -0.55608117E-01
  7716.1370       0.19963491       0.39963490       0.19963490       0.19963490       0.20570827E-01   0.79095776E-01
  7716.2550       0.20623759       0.40623759       0.20623759       0.20623759       0.41728432E-01   0.91649201E-01
  7716.3670       0.20923244       0.40923244       0.20923244       0.20923244       0.41650143E-01   0.14124320
  7716.4990       0.21640023       0.41640022       0.21640022       0.21640022       0.76191773E-01   0.13333083
  7716.6200       0.22850896       0.42850896       0.22850896       0.22850896       0.75382844E-01  -0.70950343E-01
  7716.7330       0.23403981       0.43403981       0.23403981       0.23403981       0.59589393E-01  -0.15362828
  7716.8670       0.24322754       0.44322754       0.24322754       0.24322754       0.37436658E-01  -0.75872094E-01
  7716.9880       0.24358616       0.44358616       0.24358616       0.24358616       0.40242009E-01   0.77614549E-01
  7717.1010       0.25264417       0.45264417       0.25264417       0.25264417       0.55598463E-01  -0.26690690E-01
  7717.2330       0.25720778       0.45720778       0.25720778       0.25720778       0.33702790E-01   0.72908140E-01
  7717.3500       0.26103617       0.46103617       0.26103617       0.26103617       0.73752589E-01   0.20444868
  7717.4620       0.27409713       0.47409712       0.27409712       0.27409712       0.80521537E-01  -0.80367718E-01
  7717.5920       0.28052238       0.48052238       0.28052238       0.28052238       0.54303602E-01   0.42824170E-02
  7717.7100       0.28756442       0.48756442       0.28756442       0.28756442       0.81583576E-01   0.20791531
  7717.8420       0.30091827       0.50091827       0.30091827       0.30091827       0.10628243       0.60858690E-01
  7717.9600       0.31413503       0.51413502       0.31413502       0.31413502       0.96798249E-01  -0.11559863
  7718.0740       0.32337547       0.52337546       0.32337547       0.32337546       0.79463546E-01   0.33647093E-02
  7718.2060       0.33368306       0.53368306       0.33368306       0.33368306       0.97625967E-01   0.68519009E-01
  7718.3280       0.34817246       0.54817246       0.34817246       0.34817246       0.96867374E-01  -0.43646000E-01
  7718.4410       0.35644689       0.55644689       0.35644689       0.35644689       0.87369157E-01  -0.74426651E-01
  7718.5730       0.36957791       0.56957790       0.36957790       0.36957790       0.78632844E-01   0.76918479E-01
  7718.6930       0.37626237       0.57626236       0.37626236       0.37626236       0.10675261       0.23382816
  7718.8050       0.39434451       0.59434451       0.39434451       0.39434451       0.13288098       0.14735451E-01
  7718.9360       0.40855244       0.60855244       0.40855244       0.40855244       0.11033333      -0.20311541E-01
  7719.0560       0.42203818       0.62203818       0.42203818       0.42203818       0.12778278       0.49846277E-01
  7719.1680       0.43819805       0.63819805       0.43819805       0.43819805       0.12189766       0.35919938E-01
  7719.2990       0.45165931       0.65165931       0.45165931       0.45165931       0.13651133       0.26108885
  7719.4200       0.47259890       0.67259890       0.47259890       0.47259890       0.18769205       0.83677012E-01
  7719.5350       0.49595464       0.69595463       0.49595463       0.49595463       0.15625910      -0.23676898
  7719.6660       0.51103864       0.71103864       0.51103864       0.51103864       0.12944688      -0.36046161E-01
  7719.7880       0.52870470       0.72870469       0.52870469       0.52870469       0.14713942       0.16426980
  7719.9010       0.54561641       0.74561640       0.54561640       0.54561640       0.16805029       0.21899396
  7720.0340       0.57004507       0.77004506       0.57004506       0.57004506       0.20101194       0.12717524
  7720.1540       0.59647243       0.79647242       0.59647242       0.59647242       0.20022562      -0.51738961E-01
  7720.2670       0.61669764       0.81669763       0.61669763       0.61669763       0.18895676      -0.59469361E-01
  7720.3970       0.64238892       0.84238892       0.64238892       0.64238892       0.18577457      -0.94269793E-01
  7720.5160       0.66295551       0.86295550       0.66295550       0.66295550       0.16548358      -0.54542217E-01
  7720.6460       0.68359433       0.88359433       0.68359433       0.68359433       0.17219356       0.16139429
  7720.7660       0.70600390       0.90600389       0.70600389       0.70600389       0.20583215       0.21718975
  7720.8790       0.73155322       0.93155322       0.73155322       0.73155322       0.22279877       0.29075666E-01
  7721.0130       0.76103519       0.96103519       0.76103519       0.76103519       0.21301384      -0.18874581
  7721.1330       0.78565874       0.98565873       0.78565873       0.78565873       0.17485733      -0.88192971E-01
  7721.2460       0.80177695        1.0017769       0.80177694       0.80177694       0.19246488       0.24925133
  7721.3790       0.83300510        1.0330051       0.83300509       0.83300509       0.23617316       0.23474375
  7721.5000       0.86176493        1.0617649       0.86170269       0.86170269       0.25208979       0.15855864E-02
  7721.6120       0.89174202        2.2355354       0.89185406        2.0356475       0.23654260      -0.18041275
  7721.7440       0.91948133        2.2185305       0.91979878        2.0188480       0.20806908       0.70614714E-01
  7721.8620       0.94375929        2.2034619       0.94426037        2.0039630       0.25419628      -0.41693044E-01
  7721.9740       0.97794647        2.1892748       0.97862184        1.9899502       0.19847968      -0.44281844
  7722.1040       0.99179137        2.1729480       0.99266904        1.9738256       0.14703422       0.52848071E-01
  7722.2260        1.0149991        2.1577624        1.0160666        1.9588299       0.21179740       0.26162626
  7722.3580        1.0455879        2.1414803        1.0468608        1.9427533       0.21348729      -0.13058943
  7722.4790        1.0690114        2.1266899        1.0704726        1.9281511       0.17875827      -0.30223568
  7722.5930        1.0875961        2.1128726        1.0892347        1.9145112       0.14246190      -0.35224388
  7722.7240        1.1039145        2.0971349        1.1057570        1.8989774       0.92458519E-01  -0.17642970
  7722.8460        1.1109881        2.0826126        1.1130204        1.8846449       0.97825192E-01   0.30095342
  7722.9580        1.1268056        2.0693940        1.1290122        1.8716006       0.16288162       0.32031273
  7723.0510        1.1443788        2.0585001        1.1467302        1.8608514       0.16348930      -0.17921018
  7723.2130        1.1684954        2.0397009        1.1710988        1.8423043       0.11718302      -0.16425171
  7723.4060        1.1859788        2.0175969        1.1888826        1.8205007       0.10517994       0.16478985E-01
  7723.6030        1.2095156        1.9953607        1.2127259        1.7985710       0.12360983      -0.18017723E-01
  7723.8000        1.2346811        1.9734513        1.2381980        1.7769682       0.98080960E-01  -0.16893157
  7724.0000        1.2484537        1.9515403        1.2522818        1.7553684       0.56543995E-01  -0.20478308
  7724.1980        1.2571856        1.9301756        1.2613218        1.7343118       0.16577294E-01  -0.13568348
  7724.3960        1.2550183        1.9091339        1.2594627        1.7135782       0.28133376E-02  -0.12541315E-01
  7724.5920        1.2582941        1.8886207        1.2630434        1.6933700       0.11636016E-01  -0.42396063E-01
  7724.7890        1.2595913        1.8683171        1.2646472        1.6733730      -0.13848315E-01  -0.10445073
  7725.0080        1.2525332        1.8461132        1.2579298        1.6515099      -0.31815490E-01  -0.26882973E-01
  7725.7230        1.2298756        1.7762731        1.2363850        1.5827824      -0.38957012E-01  -0.73768932E-02
  7726.5070        1.1941366        1.7042575        1.2018659        1.5119868      -0.42873453E-01   0.29856935E-02
  7727.3020        1.1621784        1.6359598        1.1711449        1.4449263      -0.34242602E-01   0.48938212E-02
  7728.0660        1.1407524        1.5746695        1.1509077        1.3848248      -0.35243985E-01   0.36456350E-02
  7728.8300        1.1083256        1.5174986        1.1196699        1.3288428      -0.28672072E-01   0.15995801E-01
  7729.5930        1.0969701        1.4643778        1.1095017        1.2769094      -0.10818397E-01   0.16299717E-01
  7730.3530        1.0918492        1.4152801        1.1055635        1.2289943      -0.38476024E-02   0.56286038E-02
  7731.1470        1.0909909        1.3679060        1.1059408        1.1828559      -0.20715470E-02   0.18886690E-02
  7731.9100        1.0886238        1.3260156        1.1047610        1.1421528      -0.90694467E-03  -0.41508154E-02
  7732.6790        1.0896015        1.2872597        1.1069353        1.1045936      -0.84305961E-02  -0.46516442E-02
  7733.4410        1.0757166        1.2521504        1.0942362        1.0706700      -0.80286119E-02   0.56082024E-02
  7734.2140        1.0772776        1.2197448        1.0970001        1.0394673       0.17799458E-03  -0.11003213E-02
  7734.9760        1.0759898        1.1908282        1.0968981        1.0117365      -0.97176051E-02  -0.98819255E-02
  7735.7750        1.0621084        1.1635877        1.0842600       0.98573935      -0.15247691E-01   0.43383557E-02
  7736.5390        1.0521577        1.1403479        1.0754982       0.96368844      -0.29367552E-02   0.62895583E-02
  7737.3090        1.0576034        1.1195620        1.0821422       0.94410079      -0.55995087E-02  -0.10521572E-01
  7738.0780        1.0435400        1.1013057        1.0692754       0.92704116      -0.19129455E-01  -0.81164918E-02
  7738.8440        1.0282397        1.0854688        1.0551671       0.91239619      -0.18058324E-01   0.47940240E-02
  7739.6160        1.0157663        1.0717392        1.0438951       0.89986793      -0.11756246E-01   0.27973262E-02
  7740.3880        1.0100881        1.0601093        1.0394182       0.88943937      -0.13739252E-01  -0.62816829E-02
  7741.1610       0.99453917        1.0504270        1.0250722       0.88095994      -0.21461446E-01  -0.68638771E-02
  7741.9520       0.97652237        1.0424048        1.0082863       0.87416872      -0.24474356E-01   0.28602590E-04
  7744.4520       0.91399406        1.0278856       0.94964830       0.86353987      -0.21367315E-01   0.17387896E-02
  7746.9690       0.86932255        1.0261572       0.90889358       0.86572827      -0.15750848E-01   0.18039306E-02
  7749.4530       0.83522407        1.0323790       0.87866055       0.87581549      -0.12345858E-01   0.10267528E-02
  7751.9350       0.80801301        1.0417595       0.85531183       0.88905834      -0.10651994E-01   0.96582930E-03
  7754.4550       0.78194280        1.0509079       0.83316308       0.90212822      -0.75147801E-02   0.20278780E-02
  7756.9490       0.77033391        1.0591107       0.82543520       0.91421200      -0.48421327E-03   0.25749734E-02
  7759.4300       0.77953384        1.0664540       0.83849591       0.92541609       0.52957124E-02   0.16109820E-02
  7761.9470       0.79680188        1.0730955       0.85968074       0.93597436       0.75674750E-02   0.11489486E-02
  7764.4680       0.81765878        1.0789557       0.88446067       0.94575758       0.11084115E-01   0.60403172E-03
  7766.9650       0.85242197        1.0840029       0.92310953       0.95469050       0.10598506E-01  -0.66597047E-05
  7769.4620       0.87058772        1.0883205       0.94516096       0.96289374       0.11050857E-01   0.34203141E-04
  7771.9870       0.90791937        1.0919687       0.98642186       0.97047123       0.10770274E-01  -0.12537809E-02
  7774.4880       0.92471912        1.0948949        1.0071135       0.97728929       0.47493541E-02  -0.17032769E-02
  7776.9970       0.93171364        1.0971671        1.0180124       0.98346587       0.22368570E-02  -0.68879526E-03
  7780.5620       0.93830579        1.0993003        1.0301522       0.99114671       0.56561173E-03  -0.87113488E-03
  7784.1490       0.93575889        1.1002121        1.0331871       0.99764031      -0.39934996E-02  -0.48641449E-03
  7787.6930       0.90982814        1.0999654        1.0127713        1.0029086      -0.29030100E-02   0.63297603E-03
  7791.2820       0.91505172        1.0986232        1.0235799        1.0071513       0.52151838E-03   0.21108330E-03
  7794.8620       0.91356690        1.0962590        1.0276660        1.0103582      -0.13897538E-02  -0.55604223E-03
  7798.4360       0.90510942        1.0929473        1.0247702        1.0126081      -0.34564078E-02  -0.27348452E-03
  7802.0150       0.88884322        1.0887483        1.0140734        1.0139785      -0.33459885E-02   0.32819289E-05
  7805.6140       0.88109192        1.0837057        1.0119227        1.0145365      -0.34328501E-02   0.12979045E-03
  7809.2040       0.86416446        1.0779272        1.0005817        1.0143445      -0.24129250E-02   0.54462591E-03
  7812.8090       0.86373092        1.0714436        1.0057581        1.0134707       0.48573336E-03  -0.47697854E-04
  7816.3810       0.86765057        1.0644164        1.0152362        1.0120021      -0.27552525E-02  -0.59285275E-03
  7819.9940       0.84393443        1.0567695       0.99714244        1.0099775      -0.37739137E-02   0.17840828E-04
  7823.6050       0.84038782        1.0486568       0.99921503        1.0074840      -0.26263704E-02  -0.61758523E-04
  7827.2230       0.82494840        1.0401291       0.98940573        1.0045865      -0.42203660E-02   0.62358752E-04
  7830.8140       0.80996320        1.0313414       0.98000861        1.0013868      -0.21768261E-02   0.68570200E-03
  7834.4380       0.80924260        1.0222180       0.98492746       0.99790287       0.72697386E-03  -0.26079973E-04
  7838.0600       0.81523085        1.0129162       0.99655204       0.99423738      -0.23658016E-02  -0.35995868E-03
  7841.6900       0.79208581        1.0034827       0.97905578       0.99045266      -0.18834465E-02   0.68525532E-03
  7845.3200       0.80155703       0.99401093       0.99417578       0.98662969       0.26091521E-02   0.12376305E-02
