# XDI/1.0 Athena/0.9.26
# Element.edge:                  K
# Element.symbol:                Co
# Column.1:                      energy eV
# Column.2:                      norm
# Column.3:                      nbkg
# Column.4:                      flat
# Column.5:                      fbkg
# Column.6:                      nder
# Column.7:                      nsec
# Athena.e0:                     7721.54
# Athena.eshift:                 0
# Athena.rbkg:                   1.0
# Athena.importance:             1
# Athena.standard:               None
# Athena.bkg_kweight:            3
# Athena.edge_step:              1.1928571
# Athena.fixed_step:             no
# Athena.pre_edge_range:         -82.964 -19.904
# Athena.pre_edge_line:          0.004182 + 0.000214121 * E
# Athena.normalization_range:    45 125.256
# Athena.post_edge_polynomial:   15.627123 - 0.00165469 * E + 0 * E^2 + 0 * E^3
# Athena.spline_range_energy:    0.000 125.180
# Athena.clamps:                 0 24
# Athena.spline_range_k:         0.000 5.732
# Athena.kweight:                2
# Athena.window:                 hanning
# Athena.phase_correction:       no
# Athena.k_range:                .4 5.35
# Athena.dk:                     .5
# Athena.r_range:                .4 5.1
# Athena.dr:                     .5
# Athena.window:                 hanning
# Athena.plot_multiplier:        1
# Athena.y_offset:               0.2
# ///
#------------------------
#   e         norm        nbkg        flat        fbkg        nder        nsec
  7600.0670      -0.21551305      -0.15513041E-01  -0.21551304      -0.21551304       0.12595326E-01  -0.53900022E-03
  7610.6410      -0.82330072E-01   0.11766993      -0.82330069E-01  -0.82330069E-01   0.68959377E-02  -0.39985777E-03
  7624.5560      -0.46638431E-01   0.15336157      -0.46638429E-01  -0.46638429E-01   0.28032090E-02  -0.21322171E-03
  7637.2000      -0.78796429E-02   0.19212036      -0.78796426E-02  -0.78796427E-02   0.12329824E-02  -0.12575413E-03
  7649.6990      -0.15637554E-01   0.18436245      -0.15637553E-01  -0.15637553E-01  -0.35862702E-03   0.10525732E-03
  7662.1990      -0.16844960E-01   0.18315504      -0.16844959E-01  -0.16844959E-01   0.38643101E-02   0.22063915E-04
  7674.7330       0.81101585E-01   0.28110158       0.81101582E-01   0.81101582E-01   0.19372103E-03  -0.29502405E-03
  7687.3310      -0.11976363E-01   0.18802364      -0.11976362E-01  -0.11976362E-01  -0.35502344E-02   0.11051159E-04
  7700.0100      -0.86376900E-02   0.19136231      -0.86376897E-02  -0.86376897E-02   0.47306119E-03   0.89034704E-03
  7700.3880      -0.57996029E-02   0.19420040      -0.57996027E-02  -0.57996027E-02   0.80750270E-02   0.51772998E-02
  7700.7190      -0.29124959E-02   0.19708750      -0.29124958E-02  -0.29124958E-02   0.41437668E-02  -0.17536149E-01
  7701.0710      -0.29694102E-02   0.19703059      -0.29694101E-02  -0.29694101E-02  -0.39021628E-02  -0.53566865E-02
  7701.4340      -0.57025423E-02   0.19429746      -0.57025421E-02  -0.57025421E-02   0.31373592E-03   0.11271927E-01
  7701.7980      -0.27413242E-02   0.19725868      -0.27413241E-02  -0.27413241E-02   0.42925284E-02  -0.42353714E-02
  7702.1550      -0.26076294E-02   0.19739237      -0.26076293E-02  -0.26076293E-02  -0.27399669E-02  -0.11838658E-01
  7702.5150      -0.47058804E-02   0.19529412      -0.47058803E-02  -0.47058803E-02  -0.41957897E-02   0.21807365E-02
  7702.8790      -0.56453812E-02   0.19435462      -0.56453809E-02  -0.56453810E-02  -0.11611137E-02   0.22189739E-02
  7703.2420      -0.55500101E-02   0.19444999      -0.55500099E-02  -0.55500099E-02  -0.25825957E-02   0.25889150E-02
  7703.6000      -0.75074327E-02   0.19249257      -0.75074324E-02  -0.75074324E-02   0.70549402E-03   0.15258196E-01
  7703.9610      -0.50427599E-02   0.19495724      -0.50427597E-02  -0.50427597E-02   0.83880470E-02   0.67799321E-02
  7704.3250      -0.14260986E-02   0.19857390      -0.14260985E-02  -0.14260985E-02   0.56209448E-02  -0.15652000E-01
  7704.6870      -0.96195395E-03   0.19903805      -0.96195392E-03  -0.96195394E-03  -0.29753052E-02  -0.13829006E-01
  7705.0200      -0.34939357E-02   0.19650606      -0.34939356E-02  -0.34939356E-02  -0.39902141E-02   0.85680730E-02
  7705.3810      -0.37311625E-02   0.19626884      -0.37311624E-02  -0.37311624E-02   0.29709374E-02   0.27593616E-01
  7705.7490      -0.13281223E-02   0.19867188      -0.13281223E-02  -0.13281223E-02   0.16125532E-01   0.28998730E-01
  7706.1120       0.80566015E-02   0.20805660       0.80566012E-02   0.80566012E-02   0.24169009E-01   0.19738667E-01
  7706.4710       0.16121902E-01   0.21612190       0.16121901E-01   0.16121901E-01   0.30376849E-01   0.11892263E-01
  7706.8310       0.29897556E-01   0.22989756       0.29897555E-01   0.29897555E-01   0.32719546E-01  -0.65456367E-02
  7707.1960       0.39843573E-01   0.23984357       0.39843571E-01   0.39843571E-01   0.25631263E-01  -0.20934247E-01
  7707.5570       0.48505853E-01   0.24850585       0.48505851E-01   0.48505851E-01   0.17521282E-01  -0.29141928E-01
  7707.9150       0.52441375E-01   0.25244137       0.52441373E-01   0.52441373E-01   0.46782163E-02  -0.22562898E-01
  7708.2800       0.51888203E-01   0.25188820       0.51888202E-01   0.51888201E-01   0.12083068E-02  -0.89877541E-02
  7708.6460       0.53324647E-01   0.25332464       0.53324645E-01   0.53324645E-01  -0.18918320E-02  -0.13538226E-01
  7708.9820       0.50560137E-01   0.25056014       0.50560136E-01   0.50560135E-01  -0.82955277E-02   0.65137137E-02
  7709.2900       0.47982327E-01   0.24798233       0.47982325E-01   0.47982325E-01   0.23029996E-02   0.24639225E-01
  7709.5960       0.51974179E-01   0.25197418       0.51974177E-01   0.51974177E-01   0.68329565E-02  -0.10808003E-01
  7709.9030       0.52170929E-01   0.25217093       0.52170927E-01   0.52170927E-01  -0.43223062E-02  -0.32878815E-01
  7710.2110       0.49315961E-01   0.24931596       0.49315959E-01   0.49315959E-01  -0.13387514E-01  -0.60117718E-02
  7710.5140       0.43991158E-01   0.24399116       0.43991156E-01   0.43991156E-01  -0.79954987E-02   0.25580271E-01
  7710.8230       0.44422716E-01   0.24442271       0.44422714E-01   0.44422714E-01   0.22676114E-02   0.33342387E-01
  7711.1080       0.45338119E-01   0.24533812       0.45338117E-01   0.45338117E-01   0.11809879E-01   0.62771246E-02
  7711.4160       0.51425974E-01   0.25142597       0.51425972E-01   0.51425972E-01   0.59899462E-02  -0.28362378E-01
  7711.7250       0.49033916E-01   0.24903391       0.49033914E-01   0.49033914E-01  -0.56897081E-02  -0.76163723E-02
  7712.0290       0.47938183E-01   0.24793818       0.47938181E-01   0.47938181E-01   0.13211100E-02   0.69142530E-02
  7712.3330       0.49837151E-01   0.24983715       0.49837149E-01   0.49837149E-01  -0.14858423E-02   0.92409267E-02
  7712.6440       0.47024390E-01   0.24702439       0.47024388E-01   0.47024388E-01   0.70042800E-02   0.30515575E-01
  7712.9530       0.54179804E-01   0.25417980       0.54179802E-01   0.54179802E-01   0.17433814E-01   0.28279901E-01
  7713.2350       0.57327774E-01   0.25732777       0.57327772E-01   0.57327772E-01   0.23717702E-01   0.50515694E-01
  7713.5380       0.68054660E-01   0.26805466       0.68054657E-01   0.68054657E-01   0.46985495E-01   0.67060721E-01
  7713.8530       0.86364810E-01   0.28636481       0.86364807E-01   0.86364807E-01   0.65161227E-01   0.50787605E-01
  7714.1610       0.10865010       0.30865010       0.10865010       0.10865010       0.78626173E-01   0.14739246E-01
  7714.4700       0.13487716       0.33487715       0.13487715       0.13487715       0.74255342E-01  -0.43114024E-01
  7714.7770       0.15439140       0.35439139       0.15439139       0.15439139       0.52067934E-01  -0.61347579E-01
  7715.0770       0.16648239       0.36648239       0.16648239       0.16648239       0.37017362E-01  -0.49472214E-02
  7715.3860       0.17693497       0.37693496       0.17693496       0.17693496       0.49055076E-01   0.21656931E-01
  7715.6700       0.19557205       0.39557205       0.19557205       0.19557205       0.49859922E-01  -0.48940941E-01
  7715.9720       0.20615288       0.40615287       0.20615287       0.20615287       0.20375685E-01  -0.69253174E-01
  7716.1370       0.20508750       0.40508749       0.20508749       0.20508749       0.17518690E-01   0.10610333
  7716.2550       0.21111067       0.41111066       0.21111066       0.21111066       0.50402928E-01   0.15855330
  7716.3670       0.21668017       0.41668016       0.21668016       0.21668016       0.53985947E-01   0.76274435E-01
  7716.4990       0.22428324       0.42428323       0.22428323       0.22428323       0.69013890E-01   0.88622184E-01
  7716.6200       0.23414069       0.43414068       0.23414068       0.23414068       0.76407360E-01  -0.80899893E-01
  7716.7330       0.24216257       0.44216256       0.24216256       0.24216256       0.50083315E-01  -0.20479609
  7716.8670       0.24651127       0.44651126       0.24651126       0.24651126       0.25822725E-01  -0.55823283E-01
  7716.9880       0.24874736       0.44874735       0.24874735       0.24874735       0.35848378E-01   0.98266469E-01
  7717.1010       0.25489979       0.45489978       0.25489978       0.25489978       0.48817079E-01   0.71659074E-01
  7717.2330       0.26070754       0.46070753       0.26070753       0.26070753       0.53404851E-01   0.21085603
  7717.3500       0.26819759       0.46819758       0.26819758       0.26819758       0.10132023       0.37626821E-01
  7717.4620       0.28390988       0.48390987       0.28390987       0.28390987       0.62021393E-01  -0.21908293
  7717.5920       0.28320677       0.48320676       0.28320676       0.28320676       0.48302160E-01   0.97059405E-01
  7717.7100       0.29588881       0.49588880       0.29588880       0.29588880       0.86092125E-01   0.15375491
  7717.8420       0.30472980       0.50472979       0.30472979       0.30472979       0.86740887E-01   0.90883436E-01
  7717.9600       0.31757403       0.51757402       0.31757402       0.31757402       0.10881298       0.14884213
  7718.0740       0.32997441       0.52997440       0.32997440       0.32997440       0.12127226      -0.69703230E-01
  7718.2060       0.34740701       0.54740700       0.34740700       0.34740700       0.91665990E-01  -0.25401297
  7718.3280       0.35325758       0.55325756       0.35325756       0.35325756       0.56752967E-01   0.77189484E-01
  7718.4410       0.36074396       0.56074394       0.36074394       0.36074394       0.10980552       0.24124950
  7718.5730       0.38015993       0.58015991       0.38015991       0.38015991       0.11585910      -0.49169003E-01
  7718.6930       0.38994045       0.58994044       0.38994044       0.38994044       0.97414929E-01  -0.64230314E-01
  7718.8050       0.40276019       0.60276018       0.40276018       0.40276018       0.10095766       0.13026652
  7718.9360       0.41447316       0.61447315       0.41447315       0.41447315       0.12906969       0.25104590
  7719.0560       0.43515668       0.63515667       0.43515667       0.43515667       0.16397018      -0.86148150E-02
  7719.1680       0.45251425       0.65251423       0.45251423       0.45251423       0.12707106      -0.18085671
  7719.2990       0.46603495       0.66603493       0.46603493       0.46603493       0.12002200       0.68567138E-01
  7719.4200       0.48275979       0.68275977       0.48275977       0.48275977       0.14434998       0.11917618
  7719.5350       0.50010155       0.70010153       0.50010153       0.50010153       0.14814758       0.42687966E-01
  7719.6660       0.51920410       0.71920408       0.51920408       0.51920408       0.15485122      -0.34303042E-01
  7719.7880       0.53927890       0.73927888       0.53927888       0.53927888       0.13946891       0.85572597E-01
  7719.9010       0.55197929       0.75197927       0.55197927       0.55197927       0.17496078       0.28929633
  7720.0340       0.58231925       0.78231923       0.58231923       0.58231923       0.21063581       0.17337185
  7720.1540       0.60527015       0.80527013       0.60527013       0.60527013       0.21882385      -0.75912913E-01
  7720.2670       0.63330521       0.83330519       0.63330519       0.63330519       0.19294810      -0.24446112
  7720.3970       0.65215654       0.85215651       0.65215651       0.65215651       0.15941980      -0.16781979
  7720.5160       0.67300074       0.87300072       0.67300072       0.67300072       0.15116097       0.58815031E-01
  7720.6460       0.68979562       0.88979559       0.68979559       0.68979559       0.17406474       0.21735619
  7720.7660       0.71651693       0.91651690       0.71651690       0.71651690       0.20550002       0.19874614
  7720.8790       0.73767712       0.93767709       0.73767709       0.73767709       0.22037259       0.10207385
  7721.0130       0.77094896       0.97094893       0.77094893       0.77094893       0.23071226      -0.21326862
  7721.1330       0.79627804       0.99627801       0.79627801       0.79627801       0.16620237      -0.15355109
  7721.2460       0.80967411        1.0096741       0.80967408       0.80967408       0.19493485       0.32321168
  7721.3790       0.84423201        1.0442320       0.84423198       0.84423198       0.24571244       0.19962679
  7721.5000       0.87208507        1.0720850       0.87202241       0.87202241       0.24564006      -0.13189100
  7721.6120       0.90146614        2.2264217       0.90157895        2.0265345       0.21498184      -0.13668931
  7721.7440       0.92454064        2.2095503       0.92486024        2.0098700       0.21228787       0.20285027
  7721.8620       0.95453811        2.1946000       0.95504258        1.9951045       0.26569440      -0.81890076E-01
  7721.9740       0.98565035        2.1805244       0.98633029        1.9812044       0.19345315      -0.54314750
  7722.1040        1.0013538        2.1643258        1.0022374        1.9652095       0.13425271       0.34177410E-01
  7722.2260        1.0194820        2.1492596        1.0205568        1.9503344       0.20206586       0.25286707
  7722.3580        1.0526785        2.1331056        1.0539600        1.9343871       0.19848095      -0.22322561
  7722.4790        1.0696977        2.1184314        1.0711688        1.9199026       0.14558978      -0.20493534
  7722.5930        1.0868921        2.1047228        1.0885418        1.9063725       0.15032114      -0.14365368
  7722.7240        1.1065264        2.0891089        1.1083813        1.8909639       0.11039463      -0.17309600
  7722.8460        1.1148219        2.0747009        1.1168680        1.8767470       0.10652785       0.16933186
  7722.9580        1.1314539        2.0615864        1.1336754        1.8638079       0.15001828       0.18186031
  7723.0510        1.1455757        2.0507782        1.1479429        1.8531455       0.14380922      -0.14507957
  7723.2130        1.1681253        2.0321271        1.1707463        1.8347482       0.11302299      -0.11316055
  7723.4060        1.1856988        2.0101972        1.1886222        1.8131207       0.10363722       0.22073156E-02
  7723.6030        1.2085438        1.9881362        1.2117758        1.7913683       0.11388385      -0.35786982E-01
  7723.8000        1.2305691        1.9663996        1.2341097        1.7699403       0.89537151E-01  -0.13277698
  7724.0000        1.2440900        1.9446615        1.2479440        1.7485155       0.61171385E-01  -0.17732109
  7724.1980        1.2549153        1.9234654        1.2590795        1.7276296       0.18963358E-01  -0.16600091
  7724.3960        1.2515995        1.9025898        1.2560739        1.7070643      -0.45649767E-02  -0.28901243E-01
  7724.5920        1.2531167        1.8822386        1.2578981        1.6870201       0.75762688E-02  -0.18295675E-01
  7724.7890        1.2545770        1.8620955        1.2596671        1.6671857      -0.11755177E-01  -0.89253481E-01
  7725.0080        1.2482265        1.8400672        1.2536597        1.6455004      -0.29553179E-01  -0.27077438E-01
  7725.7230        1.2269743        1.7707800        1.2335277        1.5773334      -0.37045505E-01  -0.87425298E-02
  7726.5070        1.1926953        1.6993356        1.2004770        1.5071173      -0.42658231E-01   0.14441589E-02
  7727.3020        1.1596170        1.6315810        1.1686441        1.4406082      -0.34765178E-01   0.61314646E-02
  7728.0660        1.1384964        1.5707791        1.1487205        1.3810032      -0.33099278E-01   0.44316090E-02
  7728.8300        1.1090413        1.5140650        1.1204623        1.3254860      -0.27993679E-01   0.14243564E-01
  7729.5930        1.0957501        1.4613697        1.1083664        1.2739861      -0.11349356E-01   0.15162728E-01
  7730.3530        1.0917562        1.4126665        1.1055632        1.2264736      -0.49008441E-02   0.52449142E-02
  7731.1470        1.0881342        1.3656743        1.1031851        1.1807253      -0.31987592E-02   0.32723168E-02
  7731.9100        1.0867757        1.3241227        1.1030221        1.1403691       0.19415318E-03  -0.38013084E-02
  7732.6790        1.0884316        1.2856816        1.1058827        1.1031327      -0.90223637E-02  -0.59582082E-02
  7733.4410        1.0729625        1.2508585        1.0916074        1.0695034      -0.89278635E-02   0.64032482E-02
  7734.2140        1.0747273        1.2187184        1.0945833        1.0385743       0.80662235E-03  -0.55038844E-03
  7734.9760        1.0742007        1.1900399        1.0952504        1.0110897      -0.97727098E-02  -0.10129054E-01
  7735.7750        1.0594721        1.1630250        1.0817736       0.98532656      -0.15004831E-01   0.59350343E-02
  7736.5390        1.0507481        1.1399790        1.0742465       0.96347748      -0.49625121E-03   0.69168065E-02
  7737.3090        1.0587109        1.1193678        1.0834156       0.94407256      -0.43944501E-02  -0.12987183E-01
  7738.0780        1.0439851        1.1012662        1.0698946       0.92717574      -0.20483526E-01  -0.95006594E-02
  7738.8440        1.0272687        1.0855648        1.0543783       0.91267442      -0.18977962E-01   0.51159330E-02
  7739.6160        1.0147970        1.0719542        1.0431160       0.90027325      -0.12615222E-01   0.32206358E-02
  7740.3880        1.0077908        1.0604265        1.0373193       0.88995508      -0.14005301E-01  -0.45097896E-02
  7741.1610       0.99315876        1.0508309        1.0238983       0.88157050      -0.19582847E-01  -0.63041066E-02
  7741.9520       0.97716319        1.0428823        1.0091420       0.87486117      -0.23864923E-01  -0.59916072E-03
  7744.4520       0.91461930        1.0285076       0.95051476       0.86440307      -0.21554684E-01   0.15357760E-02
  7746.9690       0.86902334        1.0268171       0.90886210       0.86665593      -0.16159935E-01   0.18731643E-02
  7749.4530       0.83380346        1.0330060       0.87753383       0.87673638      -0.12186990E-01   0.11881894E-02
  7751.9350       0.80850275        1.0423187       0.85612158       0.88993755      -0.10259386E-01   0.95028012E-03
  7754.4550       0.78248601        1.0513896       0.83405284       0.90295643      -0.74336887E-02   0.19957289E-02
  7756.9490       0.77123023        1.0595112       0.82670433       0.91498536      -0.25280163E-03   0.25952057E-02
  7759.4300       0.78122833        1.0667701       0.84058932       0.92613117       0.54774595E-02   0.15503503E-02
  7761.9470       0.79860657        1.0733228       0.86191087       0.93662713       0.74958491E-02   0.11359672E-02
  7764.4680       0.81899241        1.0790914       0.88624627       0.94634531       0.11200462E-01   0.55209509E-03
  7766.9650       0.85481049        1.0840460       0.92597632       0.95521183       0.10266262E-01  -0.19113135E-03
  7769.4620       0.87026213        1.0882695       0.94533992       0.96334729       0.10245952E-01   0.98791062E-04
  7771.9870       0.90626566        1.0918218       0.98529929       0.97085545       0.10762391E-01  -0.10572380E-02
  7774.4880       0.92435390        1.0946528        1.0073058       0.97760465       0.49322739E-02  -0.17721210E-02
  7776.9970       0.93097636        1.0968299        1.0178590       0.98371256       0.18840648E-02  -0.70075783E-03
  7780.5620       0.93579771        1.0988299        1.0282655       0.99129772       0.67587087E-03  -0.81947671E-03
  7784.1490       0.93581019        1.0996114        1.0338976       0.99769887      -0.39768327E-02  -0.48571136E-03
  7787.6930       0.90743892        1.0992416        1.0110786        1.0028813      -0.27877368E-02   0.68543788E-03
  7791.2820       0.91592526        1.0977819        1.0251877        1.0070444       0.91239574E-03   0.12538453E-03
  7794.8620       0.91397988        1.0953096        1.0288510        1.0101808      -0.18888551E-02  -0.62779466E-03
  7798.4360       0.90241239        1.0919008        1.0228828        1.0123712      -0.35788473E-02  -0.18065284E-03
  7802.0150       0.88838039        1.0876170        1.0144579        1.0136945      -0.31810649E-02   0.46935545E-04
  7805.6140       0.87957870        1.0825036        1.0112946        1.0142196      -0.32419439E-02   0.80797868E-04
  7809.2040       0.86507405        1.0766707        1.0024143        1.0140110      -0.26002090E-02   0.43239321E-03
  7812.8090       0.86087020        1.0701503        1.0038583        1.0131385      -0.13087477E-03  -0.82292492E-05
  7816.3810       0.86413477        1.0631064        1.0127190        1.0116907      -0.26592703E-02  -0.44716781E-03
  7819.9940       0.84176334        1.0554641       0.99600792        1.0097087      -0.33437755E-02   0.57467455E-04
  7823.6050       0.83997933        1.0473794       0.99988114        1.0072813      -0.22441254E-02  -0.13435889E-03
  7827.2230       0.82554056        1.0389053       0.99111057        1.0044754      -0.43150559E-02   0.11582117E-04
  7830.8140       0.80887209        1.0301976       0.98006800        1.0013935      -0.21606300E-02   0.69283865E-03
  7834.4380       0.80995162        1.0211838       0.98682512       0.99805735       0.68377492E-03  -0.71283370E-04
  7838.0600       0.81382673        1.0120224       0.99637470       0.99457045      -0.26771493E-02  -0.35023524E-03
  7841.6900       0.79053693        1.0027625       0.97877190       0.99099747      -0.18561310E-02   0.74115832E-03
  7845.3200       0.80035122       0.99349886       0.99427319       0.98742086       0.27036601E-02   0.12561408E-02
