# XDI/1.0 Athena/0.9.26
# Element.edge:                  K
# Element.symbol:                Co
# Column.1:                      energy eV
# Column.2:                      norm
# Column.3:                      nbkg
# Column.4:                      flat
# Column.5:                      fbkg
# Column.6:                      nder
# Column.7:                      nsec
# Athena.e0:                     7721.54
# Athena.eshift:                 0
# Athena.rbkg:                   1.0
# Athena.importance:             1
# Athena.standard:               None
# Athena.bkg_kweight:            3
# Athena.edge_step:              1.1949131
# Athena.fixed_step:             no
# Athena.pre_edge_range:         -82.964 -19.904
# Athena.pre_edge_line:          0.280266 + 0.000178211 * E
# Athena.normalization_range:    45 125.256
# Athena.post_edge_polynomial:   15.701160 - 0.00166416 * E + 0 * E^2 + 0 * E^3
# Athena.spline_range_energy:    0.000 125.180
# Athena.clamps:                 0 24
# Athena.spline_range_k:         0.000 5.732
# Athena.kweight:                2
# Athena.window:                 hanning
# Athena.phase_correction:       no
# Athena.k_range:                .4 5.35
# Athena.dk:                     .5
# Athena.r_range:                .4 5.1
# Athena.dr:                     .5
# Athena.window:                 hanning
# Athena.plot_multiplier:        1
# Athena.y_offset:               0.2
# ///
#------------------------
#   e         norm        nbkg        flat        fbkg        nder        nsec
  7600.0670      -0.21498374      -0.14983751E-01  -0.21498375      -0.21498375       0.12108334E-01  -0.50442892E-03
  7610.6410      -0.86950225E-01   0.11304977      -0.86950228E-01  -0.86950228E-01   0.67745021E-02  -0.37289975E-03
  7624.5560      -0.49082962E-01   0.15091704      -0.49082963E-01  -0.49082963E-01   0.29763917E-02  -0.20360944E-03
  7637.2000      -0.79002384E-02   0.19209976      -0.79002387E-02  -0.79002387E-02   0.13668391E-02  -0.13064919E-03
  7649.6990      -0.14716527E-01   0.18528347      -0.14716527E-01  -0.14716527E-01  -0.30852088E-03   0.91814850E-04
  7662.1990      -0.15612952E-01   0.18438705      -0.15612952E-01  -0.15612952E-01   0.36621185E-02   0.19911251E-04
  7674.7330       0.76960948E-01   0.27696095       0.76960951E-01   0.76960951E-01   0.18993737E-03  -0.28007027E-03
  7687.3310      -0.10839446E-01   0.18916055      -0.10839446E-01  -0.10839446E-01  -0.33766076E-02   0.63482225E-05
  7700.0100      -0.83895609E-02   0.19161044      -0.83895612E-02  -0.83895612E-02   0.35040139E-03   0.93351116E-03
  7700.3880      -0.62642548E-02   0.19373574      -0.62642550E-02  -0.62642550E-02   0.88122477E-02   0.60290020E-02
  7700.7190      -0.21416773E-02   0.19785832      -0.21416773E-02  -0.21416774E-02   0.46249638E-02  -0.22124966E-01
  7701.0710      -0.31054045E-02   0.19689460      -0.31054046E-02  -0.31054046E-02  -0.62991043E-02  -0.30824939E-02
  7701.4340      -0.66455369E-02   0.19335446      -0.66455371E-02  -0.66455371E-02   0.24209807E-02   0.17016722E-01
  7701.7980      -0.13453515E-02   0.19865465      -0.13453516E-02  -0.13453516E-02   0.60720524E-02  -0.92450320E-02
  7702.1550      -0.22675871E-02   0.19773241      -0.22675872E-02  -0.22675872E-02  -0.42446874E-02  -0.17438955E-01
  7702.5150      -0.43887924E-02   0.19561121      -0.43887925E-02  -0.43887925E-02  -0.64316782E-02   0.20070244E-02
  7702.8790      -0.69241222E-02   0.19307588      -0.69241224E-02  -0.69241224E-02  -0.27916017E-02   0.84848315E-02
  7703.2420      -0.64182868E-02   0.19358171      -0.64182870E-02  -0.64182870E-02  -0.26320578E-03   0.81166949E-02
  7703.6000      -0.71138935E-02   0.19288611      -0.71138938E-02  -0.71138938E-02   0.30605353E-02   0.12544817E-01
  7703.9610      -0.42177619E-02   0.19578224      -0.42177621E-02  -0.42177621E-02   0.87565180E-02   0.24784347E-02
  7704.3250      -0.76541799E-03   0.19923458      -0.76541802E-03  -0.76541804E-03   0.48574005E-02  -0.16586993E-01
  7704.6870      -0.69128915E-03   0.19930871      -0.69128917E-03  -0.69128919E-03  -0.32856388E-02  -0.14469772E-01
  7705.0200      -0.30489369E-02   0.19695106      -0.30489371E-02  -0.30489371E-02  -0.51990908E-02   0.45798582E-02
  7705.3810      -0.42994582E-02   0.19570054      -0.42994583E-02  -0.42994584E-02  -0.10721718E-03   0.28470505E-01
  7705.7490      -0.31270983E-02   0.19687290      -0.31270984E-02  -0.31270984E-02   0.15555908E-01   0.34262389E-01
  7706.1120       0.70719102E-02   0.20707191       0.70719105E-02   0.70719105E-02   0.24938589E-01   0.18322001E-01
  7706.4710       0.14878563E-01   0.21487856       0.14878564E-01   0.14878564E-01   0.28784392E-01   0.10490390E-01
  7706.8310       0.27767888E-01   0.22776789       0.27767889E-01   0.27767889E-01   0.32481180E-01  -0.34118084E-02
  7707.1960       0.38427419E-01   0.23842742       0.38427420E-01   0.38427420E-01   0.26310831E-01  -0.23284311E-01
  7707.5570       0.46869552E-01   0.24686955       0.46869553E-01   0.46869553E-01   0.15576770E-01  -0.28427693E-01
  7707.9150       0.49627116E-01   0.24962712       0.49627118E-01   0.49627118E-01   0.58713195E-02  -0.13658737E-01
  7708.2800       0.51114516E-01   0.25111452       0.51114517E-01   0.51114517E-01   0.57015032E-02  -0.94919263E-02
  7708.6460       0.53794915E-01   0.25379492       0.53794917E-01   0.53794917E-01  -0.10672786E-02  -0.20281770E-01
  7708.9820       0.50365286E-01   0.25036529       0.50365288E-01   0.50365288E-01  -0.85362997E-02   0.76135213E-02
  7709.2900       0.48297538E-01   0.24829754       0.48297540E-01   0.48297540E-01   0.38358291E-02   0.27312395E-01
  7709.5960       0.52720485E-01   0.25272049       0.52720487E-01   0.52720487E-01   0.82335109E-02  -0.15439396E-01
  7709.9030       0.53344680E-01   0.25334468       0.53344682E-01   0.53344682E-01  -0.56285207E-02  -0.36384853E-01
  7710.2110       0.49258945E-01   0.24925895       0.49258947E-01   0.49258947E-01  -0.14143174E-01  -0.50617051E-02
  7710.5140       0.44703201E-01   0.24470320       0.44703203E-01   0.44703203E-01  -0.87212225E-02   0.17087198E-01
  7710.8230       0.43921557E-01   0.24392156       0.43921558E-01   0.43921558E-01  -0.36858088E-02   0.27931467E-01
  7711.1080       0.42513831E-01   0.24251383       0.42513832E-01   0.42513832E-01   0.78700686E-02   0.14094338E-01
  7711.4160       0.48588507E-01   0.24858851       0.48588509E-01   0.48588509E-01   0.46721334E-02  -0.22855615E-01
  7711.7250       0.45396537E-01   0.24539654       0.45396539E-01   0.45396539E-01  -0.62318460E-02  -0.13947583E-01
  7712.0290       0.44768386E-01   0.24476839       0.44768387E-01   0.44768387E-01  -0.38777351E-02  -0.88842576E-02
  7712.3330       0.43038874E-01   0.24303888       0.43038876E-01   0.43038876E-01  -0.11633475E-01   0.12478226E-01
  7712.6440       0.37613799E-01   0.23761380       0.37613800E-01   0.37613800E-01   0.37963740E-02   0.49607984E-01
  7712.9530       0.45392626E-01   0.24539263       0.45392628E-01   0.45392628E-01   0.19123475E-01   0.35103029E-01
  7713.2350       0.48915773E-01   0.24891577       0.48915775E-01   0.48915775E-01   0.24542264E-01   0.40094899E-01
  7713.5380       0.59749851E-01   0.25974985       0.59749853E-01   0.59749853E-01   0.42578991E-01   0.58212090E-01
  7713.8530       0.75229590E-01   0.27522959       0.75229592E-01   0.75229592E-01   0.60517336E-01   0.48782431E-01
  7714.1610       0.97452151E-01   0.29745215       0.97452155E-01   0.97452155E-01   0.72970446E-01   0.84818948E-02
  7714.4700       0.12025235       0.32025236       0.12025236       0.12025236       0.65750665E-01  -0.36833428E-01
  7714.7770       0.13795456       0.33795457       0.13795457       0.13795457       0.50281054E-01  -0.49406222E-01
  7715.0770       0.15077295       0.35077296       0.15077296       0.15077296       0.35761088E-01  -0.15320661E-01
  7715.3860       0.15973306       0.35973307       0.15973307       0.15973307       0.40950771E-01   0.12388440E-01
  7715.6700       0.17505676       0.37505677       0.17505677       0.17505677       0.43107433E-01  -0.15196944E-01
  7715.9720       0.18499402       0.38499403       0.18499403       0.18499403       0.32045362E-01  -0.53219939E-01
  7716.1370       0.19002195       0.39002195       0.19002195       0.19002195       0.18253722E-01  -0.21574611E-01
  7716.2550       0.19015982       0.39015983       0.19015983       0.19015983       0.25939748E-01   0.18479698
  7716.3670       0.19598809       0.39598810       0.19598810       0.19598810       0.60757027E-01   0.13273492
  7716.4990       0.20498454       0.40498455       0.20498455       0.20498455       0.58327069E-01  -0.67050474E-01
  7716.6200       0.21074484       0.41074484       0.21074484       0.21074484       0.43793258E-01  -0.13006507E-01
  7716.7330       0.21523216       0.41523217       0.21523217       0.21523217       0.55283546E-01   0.64846952E-01
  7716.8670       0.22439987       0.42439988       0.22439988       0.22439988       0.59810455E-01  -0.65054213E-01
  7716.9880       0.23048383       0.43048383       0.23048383       0.23048383       0.38694722E-01  -0.10600951
  7717.1010       0.23345444       0.43345445       0.23345445       0.23345445       0.35004229E-01   0.62800629E-01
  7717.2330       0.23905986       0.43905987       0.23905987       0.23905987       0.54080876E-01   0.21466461
  7717.3500       0.24692058       0.44692058       0.24692058       0.24692058       0.88455716E-01  -0.13903548E-02
  7717.4620       0.25931622       0.45931623       0.25931623       0.25931623       0.53762485E-01  -0.25100190
  7717.5920       0.25993110       0.45993111       0.25993111       0.25993111       0.27713256E-01   0.12160733
  7717.7100       0.26618911       0.46618912       0.26618912       0.26618912       0.83921103E-01   0.29044298
  7717.8420       0.28091137       0.48091138       0.28091138       0.28091138       0.10032400      -0.29135006E-01
  7717.9600       0.29127011       0.49127012       0.29127012       0.29127012       0.76637351E-01   0.15655543E-01
  7718.0740       0.29869124       0.49869125       0.29869125       0.29869125       0.10395609       0.13538856
  7718.2060       0.31684331       0.51684332       0.31684332       0.31684332       0.10994294      -0.15478085
  7718.3280       0.32661674       0.52661676       0.32661676       0.32661676       0.64641751E-01  -0.17678218
  7718.4410       0.33203412       0.53203413       0.33203413       0.33203413       0.68399125E-01   0.14125786
  7718.5730       0.34337453       0.54337454       0.34337454       0.34337454       0.99249927E-01   0.87490155E-01
  7718.6930       0.35704510       0.55704511       0.35704511       0.35704511       0.90446644E-01   0.11483700E-02
  7718.8050       0.36435815       0.56435816       0.36435816       0.36435816       0.99516349E-01   0.18819828
  7718.9360       0.38122757       0.58122759       0.38122759       0.38122759       0.13617883       0.23802771
  7719.0560       0.39853904       0.59853905       0.39853905       0.39853905       0.15926131      -0.54528031E-01
  7719.1680       0.41817620       0.61817621       0.41817621       0.41817621       0.12352832      -0.27406692
  7719.2990       0.42855642       0.62855643       0.42855643       0.42855643       0.92663044E-01   0.15153827
  7719.4200       0.44152728       0.64152730       0.44152730       0.44152730       0.16171597       0.28658148
  7719.5350       0.46672139       0.66672140       0.46672140       0.46672140       0.16029627      -0.17835482
  7719.6660       0.48096017       0.68096018       0.48096018       0.48096018       0.11784068       0.39580176E-02
  7719.7880       0.49653508       0.69653510       0.49653510       0.49653510       0.16129765       0.29368097
  7719.9010       0.51886511       0.71886513       0.51886513       0.51886513       0.18685571       0.37376081E-01
  7720.0340       0.54250158       0.74250160       0.54250160       0.54250160       0.17049217       0.13242930
  7720.1540       0.56199963       0.76199965       0.56199965       0.56199965       0.22036032       0.13810635
  7720.2670       0.59384554       0.79384556       0.59384556       0.59384556       0.20267094      -0.33917300
  7720.3970       0.61124867       0.81124869       0.61124869       0.61124869       0.13794128      -0.16515841
  7720.5160       0.62819292       0.82819294       0.62819294       0.62819294       0.16154650       0.13903387
  7720.6460       0.65147375       0.85147377       0.65147377       0.65147377       0.17256072       0.29753129
  7720.7660       0.67133310       0.87133312       0.67133312       0.67133312       0.23592932       0.30473787
  7720.8790       0.70644528       0.90644531       0.70644531       0.70644531       0.24356464      -0.18657528
  7721.0130       0.73149356       0.93149359       0.73149359       0.73149359       0.18984523      -0.14553196
  7721.1330       0.75466597       0.95466600       0.75466600       0.75466600       0.20659952       0.63493534E-01
  7721.2460       0.77963125       0.97963128       0.77963128       0.77963128       0.20463922       0.44490062E-01
  7721.3790       0.80500722        1.0050072       0.80500725       0.80500725       0.21754408       0.24087393
  7721.5000       0.83488745        1.0348875       0.83482577       0.83482577       0.26582120       0.15707982
  7721.6120       0.86694356        2.2702399       0.86705457        2.0703509       0.25414367      -0.10717639
  7721.7440       0.89689850        2.2527001       0.89721304        2.0530146       0.23967016       0.48517201E-02
  7721.8620       0.92686110        2.2371574       0.92735757        2.0376539       0.25535660      -0.12559008
  7721.9740       0.95563052        2.2225241       0.95629968        2.0231932       0.21078444      -0.35749306
  7722.1040       0.97787094        2.2056838       0.97874054        2.0065533       0.16884328      -0.15019060E-01
  7722.2260       0.99817903        2.1900206       0.99923674        1.9910783       0.20699964       0.20232755
  7722.3580        1.0304488        2.1732266        1.0317101        1.9744878       0.22023448      -0.59849178E-01
  7722.4790        1.0538984        2.1579712        1.0553462        1.9594190       0.19185780      -0.24151977
  7722.5930        1.0755354        2.1437195        1.0771590        1.9453430       0.16347734      -0.30396591
  7722.7240        1.0939503        2.1274871        1.0957759        1.9293126       0.11738615      -0.14228341
  7722.8460        1.1052341        2.1125083        1.1072478        1.9145219       0.12747963       0.25331714
  7722.9580        1.1237805        2.0988743        1.1259669        1.9010606       0.17666236       0.19918916
  7723.0510        1.1414499        2.0876381        1.1437796        1.8899678       0.16831341      -0.16651336
  7723.2130        1.1667005        2.0682482        1.1692800        1.8708277       0.13420146      -0.10793374
  7723.4060        1.1890914        2.0454498        1.1919685        1.8483269       0.12999693      -0.73133378E-02
  7723.6030        1.2173993        2.0225151        1.2205801        1.8256959       0.13134925      -0.79370426E-01
  7723.8000        1.2408430        1.9999178        1.2443276        1.8034023       0.98724986E-01  -0.15092016
  7724.0000        1.2565931        1.9773188        1.2603860        1.7811117       0.71433951E-01  -0.16301928
  7724.1980        1.2692737        1.9552834        1.2733720        1.7593816       0.33843313E-01  -0.15838575
  7724.3960        1.2699950        1.9335813        1.2743986        1.7379848       0.87131936E-02  -0.49030708E-01
  7724.5920        1.2727067        1.9124244        1.2774125        1.7171301       0.14525214E-01  -0.28055811E-01
  7724.7890        1.2757034        1.8914839        1.2807129        1.6964933      -0.23127403E-02  -0.11213462
  7725.0080        1.2717446        1.8685836        1.2770918        1.6739307      -0.32122786E-01  -0.43913182E-01
  7725.7230        1.2457008        1.7965542        1.2521503        1.6030037      -0.43327652E-01  -0.11388298E-01
  7726.5070        1.2067965        1.7222832        1.2144549        1.5299415      -0.49193845E-01   0.10025780E-02
  7727.3020        1.1680237        1.6518489        1.1769078        1.4607330      -0.41744581E-01   0.62460910E-02
  7728.0660        1.1417167        1.5886434        1.1517788        1.3987055      -0.39456189E-01   0.80256452E-02
  7728.8300        1.1077346        1.5296884        1.1189747        1.3409285      -0.29481396E-01   0.20306478E-01
  7729.5930        1.0966986        1.4749122        1.1091151        1.2873287      -0.84481978E-02   0.17287257E-01
  7730.3530        1.0948680        1.4242869        1.1084563        1.2378752      -0.31529032E-02   0.41972492E-02
  7731.1470        1.0917990        1.3754416        1.1066115        1.1902541      -0.19256726E-02   0.45977524E-02
  7731.9100        1.0918697        1.3322528        1.1078587        1.1482418       0.40057973E-02  -0.34362875E-02
  7732.6790        1.0979359        1.2922986        1.1151105        1.1094732      -0.71900650E-02  -0.90892821E-02
  7733.4410        1.0808618        1.2561064        1.0992113        1.0744559      -0.99098935E-02   0.34456393E-02
  7734.2140        1.0827242        1.2227044        1.1022656        1.0422458      -0.19010087E-02  -0.18098121E-02
  7734.9760        1.0779437        1.1929018        1.0986600        1.0136181      -0.12687955E-01  -0.89195934E-02
  7735.7750        1.0629183        1.1648302        1.0848665       0.98677836      -0.15824494E-01   0.72774046E-02
  7736.5390        1.0532100        1.1408848        1.0763362       0.96401097      -0.13133717E-02   0.69396449E-02
  7737.3090        1.0609036        1.1194716        1.0852170       0.94378497      -0.51790786E-02  -0.12423954E-01
  7738.0780        1.0452394        1.1006682        1.0707385       0.92616728      -0.20433837E-01  -0.79944615E-02
  7738.8440        1.0295376        1.0843609        1.0562178       0.91104099      -0.17450577E-01   0.67319245E-02
  7739.6160        1.0184004        1.0702280        1.0462709       0.89809847      -0.10080137E-01   0.20370691E-02
  7740.3880        1.0139739        1.0582615        1.0430347       0.88732229      -0.14305342E-01  -0.80691366E-02
  7741.1610       0.99629868        1.0483045        1.0265513       0.87855705      -0.22546954E-01  -0.64501930E-02
  7741.9520       0.97871046        1.0400610        1.0101827       0.87153317      -0.24393444E-01   0.33583245E-03
  7744.4520       0.91601985        1.0251855       0.95134670       0.86051234      -0.21441729E-01   0.16489771E-02
  7746.9690       0.87113731        1.0235062       0.91034499       0.86271389      -0.16120526E-01   0.16416397E-02
  7749.4530       0.83540110        1.0300262       0.87843874       0.87306378      -0.13231889E-01   0.10374944E-02
  7751.9350       0.80542775        1.0398025       0.85229226       0.88666700      -0.10968329E-01   0.10821856E-02
  7754.4550       0.78053752        1.0493380       0.83128749       0.90008793      -0.78187963E-02   0.19738956E-02
  7756.9490       0.76622431        1.0578943       0.82081964       0.91248957      -0.10712161E-02   0.26139061E-02
  7759.4300       0.77520822        1.0655613       0.83362889       0.92398192       0.51853865E-02   0.17775788E-02
  7761.9470       0.79214087        1.0725039       0.85444237       0.93480541       0.78131225E-02   0.12686723E-02
  7764.4680       0.81457073        1.0786395       0.88075924       0.94482802       0.11576958E-01   0.66942664E-03
  7766.9650       0.85023404        1.0839349       0.92027255       0.95397341       0.11172305E-01  -0.11041269E-03
  7769.4620       0.87036522        1.0884774       0.94425373       0.96236585       0.11025557E-01  -0.35230783E-04
  7771.9870       0.90560439        1.0923306       0.98338606       0.97011224       0.10995376E-01  -0.11379132E-02
  7774.4880       0.92562799        1.0954388        1.0072658       0.97707663       0.53064049E-02  -0.17498645E-02
  7776.9970       0.93218947        1.0978740        1.0176958       0.98338027       0.22285550E-02  -0.67668013E-03
  7780.5620       0.93916423        1.1002071        1.0301673       0.99121014       0.11962498E-02  -0.87294399E-03
  7784.1490       0.94074505        1.1012860        1.0372787       0.99781962      -0.40147404E-02  -0.62425277E-03
  7787.6930       0.91053512        1.1011745        1.0125331        1.0031724      -0.32552967E-02   0.69046358E-03
  7791.2820       0.91752502        1.0999423        1.0250567        1.0074740       0.91033634E-03   0.24870729E-03
  7794.8620       0.91706132        1.0976648        1.0301128        1.0107163      -0.14723142E-02  -0.63685075E-03
  7798.4360       0.90699209        1.0944201        1.0255541        1.0129822      -0.36456939E-02  -0.27707315E-03
  7802.0150       0.89098367        1.0902723        1.0150640        1.0143526      -0.34542184E-02   0.53949146E-04
  7805.6140       0.88219771        1.0852689        1.0118272        1.0148983      -0.32584469E-02   0.14394599E-03
  7809.2040       0.86755869        1.0795208        1.0027234        1.0146855      -0.24193907E-02   0.46720991E-03
  7812.8090       0.86479019        1.0730627        1.0055132        1.0137857       0.10312840E-03  -0.45537139E-04
  7816.3810       0.86829885        1.0660595        1.0145294        1.0122900      -0.27462108E-02  -0.52462378E-03
  7819.9940       0.84505867        1.0584392       0.99685990        1.0102404      -0.36662935E-02   0.18598131E-04
  7823.6050       0.84181354        1.0503592       0.99918240        1.0077280      -0.26118579E-02  -0.10184429E-03
  7827.2230       0.82617754        1.0418742       0.98912481        1.0048214      -0.44025258E-02   0.76294289E-04
  7830.8140       0.81007573        1.0331423       0.97855978        1.0016263      -0.20618523E-02   0.72432947E-03
  7834.4380       0.81130128        1.0240925       0.98537299       0.99816420       0.82351130E-03  -0.78338959E-04
  7838.0600       0.81604290        1.0148855       0.99569918       0.99454173      -0.26294964E-02  -0.34928948E-03
  7841.6900       0.79223217        1.0055720       0.97748537       0.99082514      -0.17095360E-02   0.79474551E-03
  7845.3200       0.80363166       0.99624902       0.99448178       0.98709911       0.31403560E-02   0.13360584E-02
