# XDI/1.0 Athena/0.9.26
# Element.edge:                  K
# Element.symbol:                Co
# Column.1:                      energy eV
# Column.2:                      norm
# Column.3:                      nbkg
# Column.4:                      flat
# Column.5:                      fbkg
# Column.6:                      nder
# Column.7:                      nsec
# Athena.e0:                     7721.54
# Athena.eshift:                 0
# Athena.rbkg:                   1.0
# Athena.importance:             1
# Athena.standard:               None
# Athena.bkg_kweight:            3
# Athena.edge_step:              1.1967224
# Athena.fixed_step:             no
# Athena.pre_edge_range:         -82.964 -19.904
# Athena.pre_edge_line:          0.258607 + 0.000180944 * E
# Athena.normalization_range:    45 125.256
# Athena.post_edge_polynomial:   15.862115 - 0.00168485 * E + 0 * E^2 + 0 * E^3
# Athena.spline_range_energy:    0.000 125.180
# Athena.clamps:                 0 24
# Athena.spline_range_k:         0.000 5.732
# Athena.kweight:                2
# Athena.window:                 hanning
# Athena.phase_correction:       no
# Athena.k_range:                .4 5.35
# Athena.dk:                     .5
# Athena.r_range:                .4 5.1
# Athena.dr:                     .5
# Athena.window:                 hanning
# Athena.plot_multiplier:        1
# Athena.y_offset:               0.2
# ///
#------------------------
#   e         norm        nbkg        flat        fbkg        nder        nsec
  7600.0670      -0.21320959      -0.13209601E-01  -0.21320960      -0.21320960       0.11947479E-01  -0.48851348E-03
  7610.6410      -0.86876948E-01   0.11312305      -0.86876952E-01  -0.86876952E-01   0.67819376E-02  -0.36551436E-03
  7624.5560      -0.47126722E-01   0.15287328      -0.47126724E-01  -0.47126724E-01   0.29963979E-02  -0.20729746E-03
  7637.2000      -0.72956168E-02   0.19270438      -0.72956170E-02  -0.72956170E-02   0.12763245E-02  -0.13159558E-03
  7649.6990      -0.15036096E-01   0.18496390      -0.15036097E-01  -0.15036097E-01  -0.31230987E-03   0.93185574E-04
  7662.1990      -0.15103051E-01   0.18489695      -0.15103052E-01  -0.15103052E-01   0.36058706E-02   0.19610355E-04
  7674.7330       0.75233268E-01   0.27523327       0.75233271E-01   0.75233271E-01   0.17861575E-03  -0.27532874E-03
  7687.3310      -0.10614080E-01   0.18938592      -0.10614081E-01  -0.10614081E-01  -0.33136914E-02   0.71569740E-05
  7700.0100      -0.85269091E-02   0.19147309      -0.85269095E-02  -0.85269094E-02   0.35952258E-03   0.94579124E-03
  7700.3880      -0.59197939E-02   0.19408021      -0.59197942E-02  -0.59197941E-02   0.90355048E-02   0.66604382E-02
  7700.7190      -0.21207362E-02   0.19787926      -0.21207363E-02  -0.21207363E-02   0.50817732E-02  -0.21596242E-01
  7701.0710      -0.24489428E-02   0.19755106      -0.24489429E-02  -0.24489429E-02  -0.57147284E-02  -0.61691992E-02
  7701.4340      -0.62067670E-02   0.19379323      -0.62067673E-02  -0.62067672E-02   0.67079582E-03   0.15834571E-01
  7701.7980      -0.19612743E-02   0.19803873      -0.19612743E-02  -0.19612743E-02   0.57970048E-02  -0.59752830E-02
  7702.1550      -0.20271265E-02   0.19797287      -0.20271266E-02  -0.20271266E-02  -0.36373832E-02  -0.16122200E-01
  7702.5150      -0.45692780E-02   0.19543072      -0.45692782E-02  -0.45692782E-02  -0.57626124E-02   0.16266109E-02
  7702.8790      -0.61992579E-02   0.19380074      -0.61992581E-02  -0.61992581E-02  -0.24597169E-02   0.76208961E-02
  7703.2420      -0.63574922E-02   0.19364251      -0.63574925E-02  -0.63574925E-02  -0.22222094E-03   0.70452638E-02
  7703.6000      -0.63594792E-02   0.19364052      -0.63594795E-02  -0.63594794E-02   0.26199182E-02   0.12160145E-01
  7703.9610      -0.44737710E-02   0.19552623      -0.44737712E-02  -0.44737712E-02   0.85209235E-02   0.32346131E-02
  7704.3250      -0.18180967E-03   0.19981819      -0.18180967E-03  -0.18180966E-03   0.49650128E-02  -0.15693229E-01
  7704.6870      -0.86917175E-03   0.19913083      -0.86917178E-03  -0.86917176E-03  -0.28723607E-02  -0.14141199E-01
  7705.0200      -0.21781004E-02   0.19782190      -0.21781004E-02  -0.21781004E-02  -0.48631205E-02   0.44992264E-02
  7705.3810      -0.42441773E-02   0.19575582      -0.42441775E-02  -0.42441775E-02   0.25010243E-03   0.29002186E-01
  7705.7490      -0.19957757E-02   0.19800422      -0.19957758E-02  -0.19957758E-02   0.16279473E-01   0.32543387E-01
  7706.1120       0.76561177E-02   0.20765612       0.76561180E-02   0.76561180E-02   0.24039318E-01   0.16423062E-01
  7706.4710       0.15360612E-01   0.21536061       0.15360613E-01   0.15360613E-01   0.28136924E-01   0.99002713E-02
  7706.8310       0.27886566E-01   0.22788657       0.27886567E-01   0.27886567E-01   0.31157613E-01  -0.24688425E-02
  7707.1960       0.37949881E-01   0.23794988       0.37949883E-01   0.37949883E-01   0.26347013E-01  -0.15146912E-01
  7707.5570       0.47014497E-01   0.24701450       0.47014499E-01   0.47014499E-01   0.20160955E-01  -0.29263317E-01
  7707.9150       0.52445608E-01   0.25244561       0.52445610E-01   0.52445610E-01   0.53066883E-02  -0.25326921E-01
  7708.2800       0.50851233E-01   0.25085123       0.50851235E-01   0.50851235E-01   0.18495914E-02  -0.53957654E-02
  7708.6460       0.53797659E-01   0.25379766       0.53797661E-01   0.53797661E-01   0.13623838E-02  -0.12295332E-01
  7708.9820       0.51807626E-01   0.25180763       0.51807628E-01   0.51807628E-01  -0.67817317E-02   0.19877461E-02
  7709.2900       0.49430224E-01   0.24943023       0.49430226E-01   0.49430226E-01   0.26424923E-02   0.23707239E-01
  7709.5960       0.53430117E-01   0.25343012       0.53430119E-01   0.53430119E-01   0.77745128E-02  -0.15259948E-01
  7709.9030       0.54196000E-01   0.25419600       0.54196003E-01   0.54196003E-01  -0.67118556E-02  -0.38140046E-01
  7710.2110       0.49302326E-01   0.24930233       0.49302327E-01   0.49302327E-01  -0.15681615E-01  -0.49403784E-02
  7710.5140       0.44614533E-01   0.24461454       0.44614535E-01   0.44614535E-01  -0.97304268E-02   0.21430281E-01
  7710.8230       0.43347304E-01   0.24334731       0.43347306E-01   0.43347306E-01  -0.25662834E-02   0.30701157E-01
  7711.1080       0.43090161E-01   0.24309016       0.43090163E-01   0.43090163E-01   0.85060605E-02   0.84540518E-02
  7711.4160       0.48391398E-01   0.24839140       0.48391400E-01   0.48391400E-01   0.24469694E-02  -0.27620572E-01
  7711.7250       0.44599941E-01   0.24459994       0.44599943E-01   0.44599943E-01  -0.85358322E-02  -0.93464107E-02
  7712.0290       0.43158933E-01   0.24315893       0.43158935E-01   0.43158935E-01  -0.32823804E-02   0.10634214E-02
  7712.3330       0.42604254E-01   0.24260426       0.42604256E-01   0.42604256E-01  -0.78892720E-02   0.95458642E-02
  7712.6440       0.38307031E-01   0.23830703       0.38307032E-01   0.38307032E-01   0.25883261E-02   0.36222080E-01
  7712.9530       0.44209016E-01   0.24420902       0.44209018E-01   0.44209018E-01   0.14568418E-01   0.36175729E-01
  7713.2350       0.46916966E-01   0.24691697       0.46916967E-01   0.46916967E-01   0.23968182E-01   0.46857476E-01
  7713.5380       0.58230403E-01   0.25823040       0.58230405E-01   0.58230405E-01   0.41980041E-01   0.55950551E-01
  7713.8530       0.72860631E-01   0.27286063       0.72860634E-01   0.72860634E-01   0.58545622E-01   0.52967184E-01
  7714.1610       0.94704325E-01   0.29470433       0.94704329E-01   0.94704329E-01   0.74978597E-01   0.18654678E-01
  7714.4700       0.11912243       0.31912243       0.11912243       0.11912243       0.70055559E-01  -0.43900226E-01
  7714.7770       0.13785855       0.33785855       0.13785855       0.13785855       0.47936058E-01  -0.61469523E-01
  7715.0770       0.14821961       0.34821962       0.14821962       0.14821962       0.32743558E-01  -0.53157864E-02
  7715.3860       0.15779938       0.35779938       0.15779938       0.15779938       0.44698744E-01   0.25242003E-01
  7715.6700       0.17472597       0.37472597       0.17472597       0.17472597       0.47712066E-01  -0.37965609E-01
  7715.9720       0.18575865       0.38575865       0.18575865       0.18575865       0.22450898E-01  -0.71763828E-01
  7716.1370       0.18521054       0.38521054       0.18521054       0.18521054       0.14198359E-01   0.67073523E-01
  7716.2550       0.18977678       0.38977679       0.18977679       0.18977679       0.41432705E-01   0.15821851
  7716.3670       0.19474006       0.39474007       0.19474007       0.19474007       0.50588616E-01   0.99513266E-01
  7716.4990       0.20212041       0.40212041       0.20212041       0.20212041       0.65713942E-01   0.85502538E-01
  7716.6200       0.21136569       0.41136569       0.21136569       0.21136569       0.72220758E-01  -0.10579443
  7716.7330       0.21902006       0.41902007       0.21902007       0.21902007       0.40958046E-01  -0.17888678
  7716.8670       0.22148232       0.42148233       0.22148233       0.22148233       0.28035722E-01  -0.13221372E-01
  7716.9880       0.22616917       0.42616918       0.22616918       0.22616918       0.37586596E-01   0.28370692E-01
  7717.1010       0.23027759       0.43027760       0.23027760       0.23027760       0.34674464E-01   0.47282860E-01
  7717.2330       0.23466442       0.43466442       0.23466442       0.23466442       0.49170897E-01   0.23104450
  7717.3500       0.24252114       0.44252115       0.24252115       0.24252115       0.92204545E-01  -0.27487346E-02
  7717.4620       0.25577926       0.45577927       0.25577927       0.25577927       0.48541436E-01  -0.20329703
  7717.5920       0.25426817       0.45426818       0.25426818       0.25426818       0.43006664E-01   0.14897716
  7717.7100       0.26644491       0.46644492       0.26644492       0.26644492       0.85487773E-01   0.14671945
  7717.8420       0.27564011       0.47564012       0.27564012       0.27564012       0.79686528E-01   0.16741263E-01
  7717.9600       0.28636654       0.48636655       0.28636655       0.28636655       0.89673088E-01   0.10800608
  7718.0740       0.29644427       0.49644428       0.29644428       0.29644428       0.10474394       0.19796801E-01
  7718.2060       0.31213355       0.51213356       0.31213356       0.31213356       0.94543101E-01  -0.17826214
  7718.3280       0.32045822       0.52045823       0.32045823       0.32045823       0.59465354E-01   0.86552097E-02
  7718.4410       0.32610791       0.52610792       0.32610792       0.32610792       0.96577076E-01   0.16574051
  7718.5730       0.34411960       0.54411961       0.34411961       0.34411961       0.10007178      -0.84047954E-01
  7718.6930       0.35132600       0.55132601       0.35132601       0.35132601       0.75396991E-01  -0.36695856E-01
  7718.8050       0.36161170       0.56161171       0.36161171       0.36161171       0.91558340E-01   0.23521397
  7718.9360       0.37357467       0.57357469       0.37357469       0.37357469       0.13255399       0.27932740
  7719.0560       0.39488275       0.59488277       0.39488277       0.39488277       0.16166952      -0.42392788E-01
  7719.1680       0.41108200       0.61108202       0.41108202       0.41108202       0.12271886      -0.17426890
  7719.2990       0.42470344       0.62470345       0.42470345       0.42470345       0.11932217       0.96523492E-01
  7719.4200       0.44115119       0.64115121       0.44115120       0.44115121       0.14704278       0.50084530E-01
  7719.5350       0.45940553       0.65940555       0.45940555       0.45940555       0.13114212      -0.39359322E-01
  7719.6660       0.47341215       0.67341217       0.47341217       0.47341217       0.13736039       0.10378708
  7719.7880       0.49415771       0.69415773       0.49415773       0.49415773       0.15740026       0.19570639
  7719.9010       0.51040121       0.71040123       0.51040123       0.51040123       0.18335139       0.13858821
  7720.0340       0.53926215       0.73926217       0.53926217       0.53926217       0.19149296       0.75491346E-01
  7720.1540       0.55884893       0.75884895       0.55884895       0.55884895       0.20245070      -0.30325641E-01
  7720.2670       0.58643316       0.78643319       0.58643319       0.58643319       0.18442708      -0.15684862
  7720.3970       0.60366471       0.80366473       0.60366473       0.60366473       0.16433649      -0.82790302E-01
  7720.5160       0.62735295       0.82735297       0.62735297       0.62735297       0.16381230       0.87276449E-01
  7720.6460       0.64445397       0.84445400       0.64445400       0.64445400       0.18606832       0.24099615
  7720.7660       0.67387003       0.87387005       0.67387005       0.67387005       0.22406133       0.94785760E-01
  7720.8790       0.69666026       0.89666029       0.69666029       0.69666029       0.20815340      -0.13782685E-01
  7721.0130       0.72528392       0.92528395       0.72528395       0.72528395       0.22065701      -0.51815610E-01
  7721.1330       0.75270714       0.95270717       0.75270717       0.75270717       0.19499224      -0.48063439E-01
  7721.2460       0.77071711       0.97071714       0.77071714       0.77071714       0.20945823       0.23658160
  7721.3790       0.80423387        1.0042339       0.80423390       0.80423390       0.25319131       0.22563481
  7721.5000       0.83502770        1.0350277       0.83496533       0.83496533       0.26676947      -0.14427045
  7721.6120       0.86639115        2.2662875       0.86650340        2.0663997       0.21957630      -0.20332528
  7721.7440       0.88860432        2.2488157       0.88892237        2.0491337       0.21715810       0.28806476
  7721.8620       0.92068068        2.2333332       0.92118270        2.0338352       0.29159249      -0.13875013E-01
  7721.9740       0.95567059        2.2187565       0.95634723        2.0194331       0.21396685      -0.60430488
  7722.1040       0.97246066        2.2019812       0.97333998        2.0028604       0.14535071       0.27197867E-01
  7722.2260       0.99229897        2.1863784       0.99336850        1.9874479       0.22082071       0.33474200
  7722.3580        1.0285491        2.1696490        1.0298245        1.9709243       0.23037518      -0.14204301
  7722.4790        1.0505839        2.1544521        1.0520479        1.9559161       0.18488383      -0.24149824
  7722.5930        1.0719968        2.1402551        1.0736385        1.9418967       0.17362309      -0.24298574
  7722.7240        1.0931215        2.1240848        1.0949675        1.9259307       0.12535233      -0.20039524
  7722.8460        1.1037110        2.1091632        1.1057471        1.9111994       0.12292309       0.19179963
  7722.9580        1.1218856        2.0955812        1.1240963        1.8977920       0.17023344       0.27767950
  7723.0510        1.1386088        2.0843878        1.1409646        1.8867435       0.17984739      -0.11189051
  7723.2130        1.1677466        2.0650716        1.1703550        1.8676799       0.14170136      -0.15795204
  7723.4060        1.1889128        2.0423595        1.1918221        1.8452688       0.12377441      -0.26277776E-01
  7723.6030        1.2160187        2.0195115        1.2192351        1.8227278       0.13145303      -0.47496088E-01
  7723.8000        1.2407053        1.9969992        1.2442288        1.8005227       0.10506096      -0.13826198
  7724.0000        1.2577279        1.9744850        1.2615632        1.7783204       0.76563020E-01  -0.18243066
  7724.1980        1.2711774        1.9525320        1.2753214        1.7566760       0.32453552E-01  -0.17161113
  7724.3960        1.2705795        1.9309108        1.2750322        1.7353635       0.86050134E-02  -0.29435986E-01
  7724.5920        1.2745677        1.9098325        1.2793261        1.7145908       0.20855774E-01  -0.39945169E-01
  7724.7890        1.2787758        1.8889694        1.2838413        1.6940349      -0.70934380E-02  -0.13732322
  7725.0080        1.2716169        1.8661535        1.2770238        1.6715604      -0.36270686E-01  -0.37984848E-01
  7725.7230        1.2448990        1.7943872        1.2514206        1.6009088      -0.42571286E-01  -0.78244672E-02
  7726.5070        1.2078025        1.7203831        1.2155465        1.5281270      -0.47999562E-01  -0.34190477E-03
  7727.3020        1.1691077        1.6501973        1.1780911        1.4591807      -0.43111154E-01   0.50401906E-02
  7728.0660        1.1405922        1.5872103        1.1507668        1.3973848      -0.40141905E-01   0.91960294E-02
  7728.8300        1.1077708        1.5284545        1.1191366        1.3398202      -0.29059621E-01   0.19809097E-01
  7729.5930        1.0962182        1.4738588        1.1087735        1.2864141      -0.98934134E-02   0.17138193E-01
  7730.3530        1.0927032        1.4233957        1.1064434        1.2371358      -0.29581528E-02   0.60813233E-02
  7731.1470        1.0916212        1.3747017        1.1065993        1.1896797      -0.44303696E-03   0.37164322E-02
  7731.9100        1.0920133        1.3316416        1.1081811        1.1478093       0.28283322E-02  -0.46737030E-02
  7732.6790        1.0959542        1.2918013        1.1133209        1.1091679      -0.76031499E-02  -0.74202393E-02
  7733.4410        1.0803729        1.2557071        1.0989276        1.0742617      -0.85320542E-02   0.46431613E-02
  7734.2140        1.0828575        1.2223899        1.1026174        1.0421497      -0.47589733E-03  -0.29206265E-02
  7734.9760        1.0796424        1.1926574        1.1005903        1.0136052      -0.13015216E-01  -0.10473486E-01
  7735.7750        1.0625408        1.1646454        1.0847343       0.98683895      -0.16825009E-01   0.75218883E-02
  7736.5390        1.0533449        1.1407447        1.0767296       0.96412939      -0.12585045E-02   0.82091983E-02
  7737.3090        1.0606102        1.1193649        1.0851954       0.94395009      -0.42320986E-02  -0.12738041E-01
  7738.0780        1.0468317        1.1005841        1.0726159       0.92636819      -0.20862350E-01  -0.97590667E-02
  7738.8440        1.0285865        1.0842891        1.0555649       0.91126745      -0.19212266E-01   0.69250750E-02
  7739.6160        1.0172833        1.0701592        1.0454653       0.89834121      -0.10211584E-01   0.37620379E-02
  7740.3880        1.0128198        1.0581869        1.0422055       0.88757251      -0.13403680E-01  -0.72613471E-02
  7741.1610       0.99657458        1.0482159        1.0271654       0.87880669      -0.21430366E-01  -0.73077873E-02
  7741.9520       0.97930274        1.0399506        1.0111268       0.87177459      -0.24833059E-01  -0.64713828E-04
  7744.4520       0.91484899        1.0249642       0.95057073       0.86068596      -0.21643339E-01   0.17420208E-02
  7746.9690       0.87071811        1.0231283       0.91036407       0.86277422      -0.16093341E-01   0.16872832E-02
  7749.4530       0.83436619        1.0294737       0.87788492       0.87299244      -0.13205236E-01   0.97515531E-03
  7751.9350       0.80514091        1.0390802       0.85252928       0.88646854      -0.11250719E-01   0.10122682E-02
  7754.4550       0.77809009        1.0484659       0.82940736       0.89978313      -0.81418699E-02   0.20780211E-02
  7756.9490       0.76431757        1.0568975       0.81952320       0.91210313      -0.83152155E-03   0.27355534E-02
  7759.4300       0.77395327        1.0644622       0.83302699       0.92353589       0.54675083E-02   0.17143318E-02
  7761.9470       0.79164418        1.0713213       0.85464211       0.93431925       0.77367088E-02   0.11987183E-02
  7764.4680       0.81293081        1.0773921       0.87985920       0.94432046       0.11506651E-01   0.71269799E-03
  7766.9650       0.84938455        1.0826401       0.92020598       0.95346152       0.11313027E-01  -0.99168070E-04
  7769.4620       0.86942807        1.0871503       0.94414253       0.96186469       0.11011406E-01  -0.66181111E-04
  7771.9870       0.90468383        1.0909844       0.98333498       0.96963555       0.10980666E-01  -0.11152094E-02
  7774.4880       0.92461689        1.0940856        1.0071673       0.97663595       0.54063635E-02  -0.17193805E-02
  7776.9970       0.93176972        1.0965237        1.0182319       0.98298579       0.23665694E-02  -0.71887893E-03
  7780.5620       0.93899144        1.0988750        1.0310117       0.99089530       0.10398929E-02  -0.92034414E-03
  7784.1490       0.93920703        1.0999843        1.0368198       0.99759702      -0.42157319E-02  -0.59246320E-03
  7787.6930       0.90892905        1.0999099        1.0120672        1.0030480      -0.31849622E-02   0.70436380E-03
  7791.2820       0.91648869        1.0987175        1.0252224        1.0074512       0.80849508E-03   0.25202795E-03
  7794.8620       0.91472515        1.0964769        1.0290404        1.0107920      -0.13781738E-02  -0.59884930E-03
  7798.4360       0.90662924        1.0932613        1.0265166        1.0131486      -0.34756728E-02  -0.30964151E-03
  7802.0150       0.88986367        1.0891299        1.0153310        1.0145972      -0.35930395E-02   0.12311826E-04
  7805.6140       0.88083840        1.0841252        1.0119169        1.0152037      -0.33872985E-02   0.13347661E-03
  7809.2040       0.86551238        1.0783530        1.0021880        1.0150286      -0.26334761E-02   0.49854560E-03
  7812.8090       0.86189054        1.0718426        1.0041866        1.0141387       0.19973704E-03   0.13870346E-04
  7816.3810       0.86694589        1.0647551        1.0148110        1.0126202      -0.25339286E-02  -0.54518788E-03
  7819.9940       0.84368426        1.0570113       0.99718240        1.0105094      -0.37174379E-02   0.16275779E-04
  7823.6050       0.84009112        1.0487644       0.99921911        1.0078924      -0.24163524E-02  -0.12923339E-03
  7827.2230       0.82621645        1.0400637       0.99098521        1.0048324      -0.46516660E-02   0.15801890E-04
  7830.8140       0.80655726        1.0310644       0.97692469        1.0014318      -0.23024366E-02   0.79444095E-03
  7834.4380       0.80960437        1.0216860       0.98562192       0.99770354       0.10802254E-02  -0.36310294E-04
  7838.0600       0.81438457        1.0120863       0.99604913       0.99375085      -0.25655410E-02  -0.41235765E-03
  7841.6900       0.79099907        1.0023098       0.97832310       0.98963376      -0.19101922E-02   0.71452393E-03
  7845.3200       0.80051658       0.99244893       0.99350009       0.98543242       0.26219028E-02   0.12485110E-02
