# XDI/1.0 Athena/0.9.26
# Element.edge:                  K
# Element.symbol:                Co
# Column.1:                      energy eV
# Column.2:                      norm
# Column.3:                      nbkg
# Column.4:                      flat
# Column.5:                      fbkg
# Column.6:                      nder
# Column.7:                      nsec
# Athena.e0:                     7721.54
# Athena.eshift:                 0
# Athena.rbkg:                   1.0
# Athena.importance:             1
# Athena.standard:               None
# Athena.bkg_kweight:            3
# Athena.edge_step:              1.1959556
# Athena.fixed_step:             no
# Athena.pre_edge_range:         -82.964 -19.904
# Athena.pre_edge_line:          0.324661 + 0.000172405 * E
# Athena.normalization_range:    45 125.256
# Athena.post_edge_polynomial:   15.759948 - 0.0016717 * E + 0 * E^2 + 0 * E^3
# Athena.spline_range_energy:    0.000 125.180
# Athena.clamps:                 0 24
# Athena.spline_range_k:         0.000 5.732
# Athena.kweight:                2
# Athena.window:                 hanning
# Athena.phase_correction:       no
# Athena.k_range:                .4 5.35
# Athena.dk:                     .5
# Athena.r_range:                .4 5.1
# Athena.dr:                     .5
# Athena.window:                 hanning
# Athena.plot_multiplier:        1
# Athena.y_offset:               0.2
# ///
#------------------------
#   e         norm        nbkg        flat        fbkg        nder        nsec
  7600.0670      -0.21485248      -0.14852471E-01  -0.21485247      -0.21485247       0.12022718E-01  -0.49595353E-03
  7610.6410      -0.87724260E-01   0.11227574      -0.87724257E-01  -0.87724257E-01   0.67785052E-02  -0.36847877E-03
  7624.5560      -0.48853664E-01   0.15114634      -0.48853663E-01  -0.48853663E-01   0.29990412E-02  -0.20353661E-03
  7637.2000      -0.80727247E-02   0.19192728      -0.80727244E-02  -0.80727244E-02   0.13727763E-02  -0.13108090E-03
  7649.6990      -0.14337949E-01   0.18566205      -0.14337948E-01  -0.14337948E-01  -0.29672597E-03   0.90040242E-04
  7662.1990      -0.15490577E-01   0.18450942      -0.15490577E-01  -0.15490577E-01   0.36236923E-02   0.19460040E-04
  7674.7330       0.76377565E-01   0.27637756       0.76377563E-01   0.76377563E-01   0.19043666E-03  -0.27758047E-03
  7687.3310      -0.10704523E-01   0.18929548      -0.10704523E-01  -0.10704523E-01  -0.33524600E-02   0.73185583E-05
  7700.0100      -0.83625652E-02   0.19163744      -0.83625650E-02  -0.83625649E-02   0.37542786E-03   0.91876045E-03
  7700.3880      -0.58025613E-02   0.19419744      -0.58025611E-02  -0.58025611E-02   0.86437953E-02   0.42440217E-02
  7700.7190      -0.22341144E-02   0.19776589      -0.22341143E-02  -0.22341143E-02   0.33844393E-02  -0.21177287E-01
  7701.0710      -0.34909893E-02   0.19650901      -0.34909892E-02  -0.34909892E-02  -0.58202920E-02  -0.87616817E-03
  7701.4340      -0.63956231E-02   0.19360438      -0.63956229E-02  -0.63956229E-02   0.27579790E-02   0.16452851E-01
  7701.7980      -0.14859386E-02   0.19851406      -0.14859385E-02  -0.14859385E-02   0.61409307E-02  -0.86266012E-02
  7702.1550      -0.19680121E-02   0.19803199      -0.19680121E-02  -0.19680121E-02  -0.34618005E-02  -0.18425718E-01
  7702.5150      -0.39680495E-02   0.19603195      -0.39680494E-02  -0.39680493E-02  -0.70703088E-02   0.28556114E-03
  7702.8790      -0.70869157E-02   0.19291308      -0.70869155E-02  -0.70869155E-02  -0.32550542E-02   0.95532250E-02
  7703.2420      -0.63344739E-02   0.19366553      -0.63344737E-02  -0.63344737E-02  -0.12511422E-03   0.81222756E-02
  7703.6000      -0.71771231E-02   0.19282288      -0.71771228E-02  -0.71771228E-02   0.26011065E-02   0.12164653E-01
  7703.9610      -0.44642783E-02   0.19553572      -0.44642781E-02  -0.44642781E-02   0.86212711E-02   0.40692189E-02
  7704.3250      -0.92670153E-03   0.19907330      -0.92670150E-03  -0.92670149E-03   0.55512902E-02  -0.15222106E-01
  7704.6870      -0.43404158E-03   0.19956596      -0.43404157E-03  -0.43404156E-03  -0.24299782E-02  -0.16049750E-01
  7705.0200      -0.26155364E-02   0.19738446      -0.26155363E-02  -0.26155363E-02  -0.56032860E-02   0.28785951E-02
  7705.3810      -0.43227221E-02   0.19567728      -0.43227219E-02  -0.43227219E-02  -0.43223322E-03   0.29965030E-01
  7705.7490      -0.29306344E-02   0.19706937      -0.29306343E-02  -0.29306343E-02   0.16241221E-01   0.35097884E-01
  7706.1120       0.75496103E-02   0.20754961       0.75496101E-02   0.75496101E-02   0.25224320E-01   0.17480926E-01
  7706.4710       0.15281325E-01   0.21528132       0.15281324E-01   0.15281324E-01   0.28862449E-01   0.88684449E-02
  7706.8310       0.28301712E-01   0.22830171       0.28301711E-01   0.28301711E-01   0.31600732E-01  -0.43160321E-02
  7707.1960       0.38191855E-01   0.23819185       0.38191854E-01   0.38191854E-01   0.25733326E-01  -0.20213341E-01
  7707.5570       0.46984106E-01   0.24698410       0.46984105E-01   0.46984105E-01   0.16925846E-01  -0.28010005E-01
  7707.9150       0.50361539E-01   0.25036154       0.50361537E-01   0.50361537E-01   0.55941323E-02  -0.16624544E-01
  7708.2800       0.51028664E-01   0.25102866       0.51028662E-01   0.51028662E-01   0.49063011E-02  -0.78039997E-02
  7708.6460       0.53948045E-01   0.25394804       0.53948043E-01   0.53948043E-01  -0.11059150E-03  -0.17465578E-01
  7708.9820       0.50951029E-01   0.25095103       0.50951027E-01   0.50951027E-01  -0.73545349E-02   0.59487688E-02
  7709.2900       0.49211724E-01   0.24921172       0.49211723E-01   0.49211723E-01   0.37204156E-02   0.23919092E-01
  7709.5960       0.53235364E-01   0.25323536       0.53235362E-01   0.53235362E-01   0.73317877E-02  -0.16391163E-01
  7709.9030       0.53706110E-01   0.25370611       0.53706108E-01   0.53706109E-01  -0.63273676E-02  -0.35453584E-01
  7710.2110       0.49344033E-01   0.24934403       0.49344031E-01   0.49344031E-01  -0.14472166E-01  -0.27253310E-02
  7710.5140       0.44863617E-01   0.24486362       0.44863615E-01   0.44863615E-01  -0.79925449E-02   0.17344664E-01
  7710.8230       0.44452595E-01   0.24445259       0.44452594E-01   0.44452594E-01  -0.38572323E-02   0.24703858E-01
  7711.1080       0.42572421E-01   0.24257242       0.42572419E-01   0.42572419E-01   0.66815466E-02   0.13641439E-01
  7711.4160       0.48414752E-01   0.24841475       0.48414751E-01   0.48414751E-01   0.42321409E-02  -0.20669248E-01
  7711.7250       0.45183652E-01   0.24518365       0.45183650E-01   0.45183650E-01  -0.60713794E-02  -0.13218534E-01
  7712.0290       0.44692997E-01   0.24469300       0.44692995E-01   0.44692995E-01  -0.38708205E-02  -0.90823747E-02
  7712.3330       0.42830193E-01   0.24283019       0.42830191E-01   0.42830191E-01  -0.11593463E-01   0.12904611E-01
  7712.6440       0.37563017E-01   0.23756302       0.37563016E-01   0.37563016E-01   0.40655153E-02   0.47576364E-01
  7712.9530       0.45350812E-01   0.24535081       0.45350811E-01   0.45350811E-01   0.17903883E-01   0.34129617E-01
  7713.2350       0.48144212E-01   0.24814421       0.48144210E-01   0.48144210E-01   0.24236119E-01   0.42179970E-01
  7713.5380       0.59528942E-01   0.25952894       0.59528940E-01   0.59528940E-01   0.42579165E-01   0.57590295E-01
  7713.8530       0.74458136E-01   0.27445813       0.74458133E-01   0.74458133E-01   0.59826922E-01   0.48294893E-01
  7714.1610       0.96801114E-01   0.29680111       0.96801111E-01   0.96801111E-01   0.72666883E-01   0.11631280E-01
  7714.4700       0.11929360       0.31929360       0.11929360       0.11929360       0.67003421E-01  -0.34915197E-01
  7714.7770       0.13807522       0.33807522       0.13807522       0.13807522       0.51159122E-01  -0.53869652E-01
  7715.0770       0.15034719       0.35034719       0.15034719       0.15034719       0.34304542E-01  -0.17377457E-01
  7715.3860       0.15896669       0.35896668       0.15896668       0.15896668       0.40576251E-01   0.18584300E-01
  7715.6700       0.17440891       0.37440890       0.17440890       0.17440890       0.45325032E-01  -0.14546612E-01
  7715.9720       0.18552716       0.38552715       0.18552715       0.18552715       0.32051936E-01  -0.69724507E-01
  7716.1370       0.18937716       0.38937715       0.18937715       0.18937715       0.12763688E-01  -0.16852417E-01
  7716.2550       0.18913928       0.38913927       0.18913927       0.18913927       0.27282702E-01   0.20701709
  7716.3670       0.19565218       0.39565218       0.19565218       0.19565218       0.60377617E-01   0.12453093
  7716.4990       0.20387142       0.40387141       0.20387141       0.20387141       0.57668248E-01  -0.38843241E-01
  7716.6200       0.21024225       0.41024224       0.21024224       0.21024224       0.50550278E-01  -0.18514070E-01
  7716.7330       0.21570018       0.41570018       0.21570018       0.21570018       0.53335956E-01   0.19605331E-01
  7716.8670       0.22341623       0.42341622       0.22341622       0.22341622       0.55392794E-01  -0.44386402E-01
  7716.9880       0.22982535       0.42982534       0.22982534       0.22982534       0.42017423E-01  -0.94710930E-01
  7717.1010       0.23324831       0.43324830       0.23324830       0.23324830       0.33230437E-01   0.47051175E-01
  7717.2330       0.23796680       0.43796680       0.23796680       0.23796680       0.53544961E-01   0.22429850
  7717.3500       0.24658100       0.44658099       0.24658099       0.24658099       0.89080763E-01  -0.39277172E-01
  7717.4620       0.25836630       0.45836629       0.25836629       0.25836629       0.44550489E-01  -0.23483562
  7717.5920       0.25736222       0.45736221       0.25736221       0.25736221       0.32250543E-01   0.18554548
  7717.7100       0.26636443       0.46636442       0.26636442       0.26636442       0.90565769E-01   0.23281955
  7717.8420       0.28000366       0.48000365       0.28000365       0.28000365       0.90455430E-01  -0.73500155E-01
  7717.9600       0.28897829       0.48897828       0.28897828       0.28897828       0.72190730E-01   0.82816418E-01
  7718.0740       0.29675191       0.49675190       0.29675190       0.29675190       0.10966884       0.14857419
  7718.2060       0.31595683       0.51595682       0.31595682       0.31595682       0.10873998      -0.19080691
  7718.3280       0.32437187       0.52437186       0.32437186       0.32437186       0.61203885E-01  -0.14575009
  7718.4410       0.33033974       0.53033973       0.33033973       0.33033973       0.74488710E-01   0.15961443
  7718.5730       0.34262160       0.54262159       0.34262159       0.34262159       0.10030942       0.54342962E-01
  7718.6930       0.35561771       0.55561770       0.35561770       0.35561770       0.88183136E-01  -0.13820732E-01
  7718.8050       0.36308009       0.56308008       0.36308008       0.36308008       0.97103012E-01   0.19135514
  7718.9360       0.37921374       0.57921373       0.37921373       0.37921373       0.13468244       0.25459279
  7719.0560       0.39688538       0.59688537       0.39688537       0.39688537       0.16100580      -0.30010551E-01
  7719.1680       0.41656709       0.61656708       0.41656708       0.41656708       0.12771999      -0.27700192
  7719.2990       0.42792134       0.62792132       0.42792132       0.42792132       0.93694335E-01   0.97213418E-01
  7719.4200       0.44017806       0.64017805       0.44017805       0.44017805       0.15221777       0.25954397
  7719.5350       0.46384473       0.66384472       0.46384472       0.46384472       0.15494671      -0.12100360
  7719.6660       0.47829495       0.67829494       0.47829494       0.47829494       0.12245088       0.36198442E-01
  7719.7880       0.49482481       0.69482479       0.49482479       0.49482479       0.16410492       0.29188582
  7719.9010       0.51685961       0.71685959       0.51685959       0.51685959       0.19104405       0.43020560E-01
  7720.0340       0.54182164       0.74182162       0.54182162       0.54182162       0.17468798       0.98968025E-01
  7720.1540       0.56105567       0.76105565       0.56105565       0.56105565       0.21608296       0.90446318E-01
  7720.2670       0.59216897       0.79216895       0.59216895       0.59216895       0.19576197      -0.32357113
  7720.3970       0.60862583       0.80862581       0.60862581       0.60862581       0.13745518      -0.12952802
  7720.5160       0.62639531       0.82639529       0.62639529       0.62639529       0.16350949       0.15246013
  7720.6460       0.64933969       0.84933967       0.64933967       0.64933967       0.17541775       0.28768520
  7720.7660       0.67024975       0.87024973       0.67024973       0.67024973       0.23543079       0.27050160
  7720.8790       0.70419506       0.90419504       0.70419504       0.70419504       0.23844462      -0.18435782
  7721.0130       0.72914557       0.92914555       0.72914555       0.72914555       0.18989441      -0.12314560
  7721.1330       0.75242824       0.95242822       0.75242822       0.75242822       0.20716564       0.69660345E-01
  7721.2460       0.77741517       0.97741514       0.77741514       0.77741514       0.20612527       0.60631427E-01
  7721.3790       0.80313506        1.0031350       0.80313503       0.80313503       0.22208097       0.25302105
  7721.5000       0.83382373        1.0338237       0.83376206       0.83376206       0.27039262       0.99894653E-01
  7721.6120       0.86613654        2.2677604       0.86624756        2.0678714       0.24535643      -0.13969787
  7721.7440       0.89369070        2.2502671       0.89400526        2.0505817       0.23630633       0.85980205E-01
  7721.8620       0.92521312        2.2347656       0.92570963        2.0352621       0.26685148      -0.11149441
  7721.9740       0.95506654        2.2201709       0.95573575        2.0208402       0.21066262      -0.41712938
  7722.1040       0.97619348        2.2033750       0.97706314        2.0042447       0.16590617       0.24638220E-01
  7722.2260       0.99687489        2.1877532       0.99793267        1.9888110       0.21687145       0.23099600
  7722.3580        1.0312788        2.1710034        1.0325401        1.9722647       0.22457915      -0.13933922
  7722.4790        1.0536934        2.1557880        1.0551413        1.9572359       0.18161863      -0.27256690
  7722.5930        1.0739592        2.1415736        1.0755829        1.9431973       0.16052593      -0.25340500
  7722.7240        1.0930223        2.1253837        1.0948479        1.9272094       0.11953440      -0.11653909
  7722.8460        1.1042014        2.1104440        1.1062152        1.9124578       0.13104154       0.23642381
  7722.9580        1.1236860        2.0968456        1.1258725        1.8990321       0.17485757       0.19250330
  7723.0510        1.1400472        2.0856386        1.1423771        1.8879685       0.17050472      -0.14952923
  7723.2130        1.1671647        2.0662991        1.1697444        1.8688788       0.13672762      -0.11705199
  7723.4060        1.1885855        2.0435597        1.1914628        1.8464370       0.12895126      -0.68792856E-02
  7723.6030        1.2174557        2.0206843        1.2206367        1.8238653       0.13404470      -0.81263002E-01
  7723.8000        1.2413991        1.9981450        1.2448839        1.8016299       0.96933640E-01  -0.16204003
  7724.0000        1.2559383        1.9756041        1.2597315        1.7793973       0.69714807E-01  -0.15057734
  7724.1980        1.2691456        1.9536250        1.2732441        1.7577235       0.37003857E-01  -0.14846719
  7724.3960        1.2705919        1.9319782        1.2749957        1.7363821       0.10921799E-01  -0.43003345E-01
  7724.5920        1.2734488        1.9108750        1.2781548        1.7155811       0.20060539E-01  -0.36747573E-01
  7724.7890        1.2784757        1.8899875        1.2834855        1.6949973      -0.35199976E-02  -0.13001249
  7725.0080        1.2719845        1.8671449        1.2773320        1.6724924      -0.34024656E-01  -0.43232054E-01
  7725.7230        1.2466966        1.7952954        1.2531466        1.6017454      -0.43898736E-01  -0.10689494E-01
  7726.5070        1.2061803        1.7212070        1.2138391        1.5288659      -0.50048208E-01   0.11956445E-02
  7727.3020        1.1676705        1.6509427        1.1765552        1.4598274      -0.42010813E-01   0.69807859E-02
  7728.0660        1.1406854        1.5878868        1.1507482        1.3979496      -0.39165162E-01   0.89839362E-02
  7728.8300        1.1078261        1.5290682        1.1190670        1.3403091      -0.28283359E-01   0.19271062E-01
  7729.5930        1.0974967        1.4744157        1.1099141        1.2868331      -0.97382509E-02   0.16200432E-01
  7730.3530        1.0929948        1.4239017        1.1065840        1.2374909      -0.36101014E-02   0.56234703E-02
  7731.1470        1.0918866        1.3751603        1.1067002        1.1899738      -0.99937798E-03   0.47954213E-02
  7731.9100        1.0914388        1.3320601        1.1074288        1.1480501       0.38563696E-02  -0.39840527E-02
  7732.6790        1.0977946        1.2921843        1.1149704        1.1093602      -0.71029467E-02  -0.89491739E-02
  7733.4410        1.0805641        1.2560599        1.0989149        1.0744107      -0.98448156E-02   0.35592270E-02
  7734.2140        1.0826828        1.2227167        1.1022255        1.0422594      -0.16395332E-02  -0.21402525E-02
  7734.9760        1.0780475        1.1929629        1.0987651        1.0136806      -0.13130103E-01  -0.91943356E-02
  7735.7750        1.0621867        1.1649332        1.0841364       0.98688294      -0.15991891E-01   0.77746194E-02
  7736.5390        1.0530521        1.1410196        1.0761799       0.96414736      -0.97837311E-03   0.73036373E-02
  7737.3090        1.0606859        1.1196306        1.0850009       0.94394564      -0.47881115E-02  -0.12487395E-01
  7738.0780        1.0456832        1.1008441        1.0711840       0.92634492      -0.20196474E-01  -0.83123918E-02
  7738.8440        1.0296843        1.0845468        1.0563662       0.91122877      -0.17547633E-01   0.62633526E-02
  7739.6160        1.0186950        1.0704178        1.0465673       0.89829016      -0.10563438E-01   0.17075427E-02
  7740.3880        1.0133744        1.0584493        1.0424370       0.88751203      -0.14911187E-01  -0.71363925E-02
  7741.1610       0.99565719        1.0484848        1.0259118       0.87873950      -0.21589164E-01  -0.58935996E-02
  7741.9520       0.97960890        1.0402288        1.0110832       0.87170314      -0.24128777E-01   0.95468117E-05
  7744.4520       0.91624939        1.0252863       0.95157858       0.86061556      -0.21557746E-01   0.15842664E-02
  7746.9690       0.87145369        1.0235110       0.91066397       0.86272133      -0.16180512E-01   0.16549588E-02
  7749.4530       0.83533065        1.0299250       0.87837114       0.87296554      -0.13281297E-01   0.10034935E-02
  7751.9350       0.80549877        1.0396012       0.85236638       0.88646885      -0.11197163E-01   0.10791653E-02
  7754.4550       0.77932244        1.0490533       0.83007577       0.89980670      -0.78833122E-02   0.20336129E-02
  7756.9490       0.76597184        1.0575459       0.82057080       0.91214493      -0.10006279E-02   0.25942444E-02
  7759.4300       0.77434431        1.0651669       0.83276885       0.92359143       0.50230536E-02   0.17482987E-02
  7761.9470       0.79107707        1.0720790       0.85338269       0.93438462       0.77373692E-02   0.13429078E-02
  7764.4680       0.81332518        1.0781990       0.87951807       0.94439187       0.11788623E-01   0.69920655E-03
  7766.9650       0.85023238        1.0834923       0.92027551       0.95353550       0.11245988E-01  -0.11644852E-03
  7769.4620       0.86948764        1.0880448       0.94338103       0.96193820       0.11207079E-01  -0.21484280E-04
  7771.9870       0.90651433        1.0919190       0.98430114       0.96970584       0.11138094E-01  -0.12026943E-02
  7774.4880       0.92546770        1.0950574        1.0071109       0.97670069       0.51623376E-02  -0.17864187E-02
  7776.9970       0.93237764        1.0975309        1.0178896       0.98304296       0.21881360E-02  -0.65395544E-03
  7780.5620       0.93875844        1.0999299        1.0297675       0.99093894       0.11902122E-02  -0.86040513E-03
  7784.1490       0.94089004        1.1010846        1.0374301       0.99762467      -0.39654815E-02  -0.63058051E-03
  7787.6930       0.91048059        1.1010538        1.0124853        1.0030585      -0.33064574E-02   0.69076928E-03
  7791.2820       0.91730508        1.0999052        1.0248438        1.0074440       0.96177582E-03   0.25958215E-03
  7794.8620       0.91737556        1.0977090        1.0304345        1.0107680      -0.14455129E-02  -0.63702872E-03
  7798.4360       0.90696388        1.0945395        1.0255338        1.0131094      -0.35955276E-02  -0.27034904E-03
  7802.0150       0.89165675        1.0904570        1.0157453        1.0145455      -0.33793197E-02   0.28983588E-04
  7805.6140       0.88270712        1.0855052        1.0123451        1.0151432      -0.33874834E-02   0.10400678E-03
  7809.2040       0.86730414        1.0797906        1.0024777        1.0149642      -0.26316149E-02   0.48100759E-03
  7812.8090       0.86377265        1.0733440        1.0045050        1.0140764       0.73366204E-04   0.75736902E-05
  7816.3810       0.86783068        1.0663265        1.0140709        1.0125667      -0.25772585E-02  -0.51179960E-03
  7819.9940       0.84525505        1.0586614       0.99706631        1.0104727      -0.36039139E-02   0.42128332E-05
  7823.6050       0.84179601        1.0505024       0.99917526        1.0078817      -0.25468250E-02  -0.11395872E-03
  7827.2230       0.82684405        1.0418997       0.98980208        1.0048578      -0.44277216E-02   0.53557153E-04
  7830.8140       0.80987657        1.0330089       0.97837174        1.0015041      -0.21607315E-02   0.73311428E-03
  7834.4380       0.81125437        1.0237522       0.98533758       0.99783542       0.86169800E-03  -0.52580516E-04
  7838.0600       0.81612043        1.0142874       0.99578859       0.99395562      -0.25417299E-02  -0.36970987E-03
  7841.6900       0.79282175        1.0046605       0.97808719       0.98992600      -0.18194380E-02   0.73295098E-03
  7845.3200       0.80291131       0.99496492       0.99377403       0.98582767       0.27794942E-02   0.12669235E-02
