# XDI/1.0 Athena/0.9.26
# Element.edge:                  K
# Element.symbol:                Co
# Column.1:                      energy eV
# Column.2:                      norm
# Column.3:                      nbkg
# Column.4:                      flat
# Column.5:                      fbkg
# Column.6:                      nder
# Column.7:                      nsec
# Athena.e0:                     7721.54
# Athena.eshift:                 0
# Athena.rbkg:                   1.0
# Athena.importance:             1
# Athena.standard:               None
# Athena.bkg_kweight:            3
# Athena.edge_step:              1.1958137
# Athena.fixed_step:             no
# Athena.pre_edge_range:         -82.964 -19.904
# Athena.pre_edge_line:          0.280652 + 0.000178068 * E
# Athena.normalization_range:    45 125.256
# Athena.post_edge_polynomial:   15.727462 - 0.00166755 * E + 0 * E^2 + 0 * E^3
# Athena.spline_range_energy:    0.000 125.180
# Athena.clamps:                 0 24
# Athena.spline_range_k:         0.000 5.732
# Athena.kweight:                2
# Athena.window:                 hanning
# Athena.phase_correction:       no
# Athena.k_range:                .4 5.35
# Athena.dk:                     .5
# Athena.r_range:                .4 5.1
# Athena.dr:                     .5
# Athena.window:                 hanning
# Athena.plot_multiplier:        1
# Athena.y_offset:               0.2
# ///
#------------------------
#   e         norm        nbkg        flat        fbkg        nder        nsec
  7600.0670      -0.21488592      -0.14885925E-01  -0.21488592      -0.21488592       0.12102061E-01  -0.50248567E-03
  7610.6410      -0.86918732E-01   0.11308127      -0.86918734E-01  -0.86918734E-01   0.67887771E-02  -0.37165939E-03
  7624.5560      -0.48635558E-01   0.15136444      -0.48635559E-01  -0.48635559E-01   0.30004939E-02  -0.20568330E-03
  7637.2000      -0.72286156E-02   0.19277138      -0.72286157E-02  -0.72286157E-02   0.13260345E-02  -0.13170705E-03
  7649.6990      -0.15295073E-01   0.18470493      -0.15295073E-01  -0.15295073E-01  -0.31101638E-03   0.91880784E-04
  7662.1990      -0.15003714E-01   0.18499629      -0.15003714E-01  -0.15003714E-01   0.36229622E-02   0.19394579E-04
  7674.7330       0.75402162E-01   0.27540216       0.75402163E-01   0.75402163E-01   0.17450752E-03  -0.27583876E-03
  7687.3310      -0.10617991E-01   0.18938201      -0.10617991E-01  -0.10617991E-01  -0.33094174E-02   0.85966641E-05
  7700.0100      -0.82499825E-02   0.19175002      -0.82499826E-02  -0.82499826E-02   0.39180540E-03   0.89049536E-03
  7700.3880      -0.55021880E-02   0.19449781      -0.55021881E-02  -0.55021881E-02   0.83177805E-02   0.57193271E-02
  7700.7190      -0.23526761E-02   0.19764732      -0.23526762E-02  -0.23526762E-02   0.44468083E-02  -0.20666327E-01
  7701.0710      -0.24650180E-02   0.19753498      -0.24650180E-02  -0.24650180E-02  -0.57973205E-02  -0.56885852E-02
  7701.4340      -0.64977603E-02   0.19350224      -0.64977604E-02  -0.64977604E-02   0.37946988E-03   0.16521117E-01
  7701.7980      -0.21891434E-02   0.19781086      -0.21891434E-02  -0.21891434E-02   0.62135314E-02  -0.52853683E-02
  7702.1550      -0.20178042E-02   0.19798220      -0.20178042E-02  -0.20178042E-02  -0.34312807E-02  -0.17584037E-01
  7702.5150      -0.46493716E-02   0.19535063      -0.46493717E-02  -0.46493717E-02  -0.63942233E-02   0.19601578E-02
  7702.8790      -0.66472218E-02   0.19335278      -0.66472219E-02  -0.66472219E-02  -0.20121265E-02   0.76537631E-02
  7703.2420      -0.61121875E-02   0.19388781      -0.61121876E-02  -0.61121876E-02  -0.82993754E-03   0.69779565E-02
  7703.6000      -0.72456068E-02   0.19275439      -0.72456069E-02  -0.72456069E-02   0.30189802E-02   0.12632061E-01
  7703.9610      -0.39415408E-02   0.19605846      -0.39415408E-02  -0.39415408E-02   0.82525145E-02   0.16569354E-02
  7704.3250      -0.12625338E-02   0.19873747      -0.12625338E-02  -0.12625338E-02   0.42202584E-02  -0.15516809E-01
  7704.6870      -0.87763319E-03   0.19912237      -0.87763321E-03  -0.87763320E-03  -0.30126888E-02  -0.12876903E-01
  7705.0200      -0.33563525E-02   0.19664365      -0.33563526E-02  -0.33563526E-02  -0.47291892E-02   0.65568080E-02
  7705.3810      -0.41596905E-02   0.19584031      -0.41596905E-02  -0.41596905E-02   0.15377359E-02   0.28998925E-01
  7705.7490      -0.22353431E-02   0.19776466      -0.22353431E-02  -0.22353431E-02   0.16411027E-01   0.30421514E-01
  7706.1120       0.78367703E-02   0.20783677       0.78367704E-02   0.78367704E-02   0.23775863E-01   0.17095572E-01
  7706.4710       0.14930830E-01   0.21493083       0.14930830E-01   0.14930830E-01   0.28754030E-01   0.11695014E-01
  7706.8310       0.28510918E-01   0.22851092       0.28510918E-01   0.28510918E-01   0.32184578E-01  -0.47957552E-02
  7707.1960       0.38264649E-01   0.23826465       0.38264649E-01   0.38264649E-01   0.25277107E-01  -0.19623393E-01
  7707.5570       0.46862098E-01   0.24686210       0.46862098E-01   0.46862098E-01   0.17937994E-01  -0.24552032E-01
  7707.9150       0.51162066E-01   0.25116207       0.51162067E-01   0.51162067E-01   0.76241965E-02  -0.19593516E-01
  7708.2800       0.52374392E-01   0.25237439       0.52374393E-01   0.52374393E-01   0.37718821E-02  -0.11884896E-01
  7708.6460       0.53919312E-01   0.25391931       0.53919313E-01   0.53919313E-01  -0.10636628E-02  -0.14949875E-01
  7708.9820       0.51627700E-01   0.25162770       0.51627701E-01   0.51627701E-01  -0.67229303E-02   0.62739504E-02
  7709.2900       0.49589745E-01   0.24958975       0.49589746E-01   0.49589746E-01   0.29767613E-02   0.22321050E-01
  7709.5960       0.53455432E-01   0.25345543       0.53455433E-01   0.53455433E-01   0.69821941E-02  -0.13827172E-01
  7709.9030       0.53869830E-01   0.25386983       0.53869831E-01   0.53869831E-01  -0.54992954E-02  -0.36064354E-01
  7710.2110       0.50073365E-01   0.25007337       0.50073366E-01   0.50073366E-01  -0.15197384E-01  -0.92215059E-02
  7710.5140       0.44584229E-01   0.24458423       0.44584230E-01   0.44584230E-01  -0.11133636E-01   0.21386474E-01
  7710.8230       0.43259580E-01   0.24325958       0.43259581E-01   0.43259581E-01  -0.21088613E-02   0.32869734E-01
  7711.1080       0.43331565E-01   0.24333157       0.43331566E-01   0.43331566E-01   0.83909866E-02   0.91772154E-02
  7711.4160       0.48235435E-01   0.24823544       0.48235436E-01   0.48235436E-01   0.33332275E-02  -0.24586908E-01
  7711.7250       0.45388167E-01   0.24538817       0.45388167E-01   0.45388167E-01  -0.67791356E-02  -0.13066381E-01
  7712.0290       0.44079825E-01   0.24407983       0.44079826E-01   0.44079826E-01  -0.46764639E-02  -0.52372187E-02
  7712.3330       0.42544876E-01   0.24254488       0.42544877E-01   0.42544877E-01  -0.99633646E-02   0.16456350E-01
  7712.6440       0.37952356E-01   0.23795236       0.37952357E-01   0.37952357E-01   0.54441912E-02   0.42983584E-01
  7712.9530       0.45920275E-01   0.24592028       0.45920276E-01   0.45920276E-01   0.16686458E-01   0.25245950E-01
  7713.2350       0.47814052E-01   0.24781405       0.47814053E-01   0.47814053E-01   0.20364548E-01   0.41962946E-01
  7713.5380       0.57833535E-01   0.25783354       0.57833536E-01   0.57833536E-01   0.41234781E-01   0.64669059E-01
  7713.8530       0.73297147E-01   0.27329715       0.73297148E-01   0.73297148E-01   0.60330026E-01   0.50626258E-01
  7714.1610       0.95419142E-01   0.29541914       0.95419143E-01   0.95419143E-01   0.72774939E-01   0.11895746E-01
  7714.4700       0.11819928       0.31819929       0.11819929       0.11819929       0.67669701E-01  -0.36040478E-01
  7714.7770       0.13710368       0.33710368       0.13710368       0.13710368       0.50574005E-01  -0.54563342E-01
  7715.0770       0.14889771       0.34889771       0.14889771       0.14889771       0.34549753E-01  -0.12742978E-01
  7715.3860       0.15814448       0.35814448       0.15814448       0.15814448       0.42813531E-01   0.22171676E-01
  7715.6700       0.17428613       0.37428613       0.17428613       0.17428613       0.47697557E-01  -0.26576296E-01
  7715.9720       0.18609525       0.38609525       0.18609525       0.18609525       0.27239821E-01  -0.77086941E-01
  7716.1370       0.18700713       0.38700713       0.18700713       0.18700713       0.11697955E-01   0.34211521E-01
  7716.2550       0.18940577       0.38940577       0.18940577       0.18940577       0.36921682E-01   0.19272015
  7716.3670       0.19549911       0.39549912       0.19549912       0.19549912       0.56023589E-01   0.79517112E-01
  7716.4990       0.20307552       0.40307553       0.20307553       0.20307553       0.56323857E-01   0.29750285E-01
  7716.6200       0.20974905       0.40974905       0.20974905       0.20974905       0.63550411E-01  -0.52187674E-01
  7716.7330       0.21794632       0.41794632       0.21794632       0.21794632       0.44111941E-01  -0.12164693
  7716.8670       0.22064470       0.42064470       0.22064470       0.22064470       0.33503620E-01  -0.20635777E-01
  7716.9880       0.22648974       0.42648975       0.22648975       0.22648975       0.38849818E-01   0.82465658E-02
  7717.1010       0.22973556       0.42973556       0.22973556       0.22973556       0.35433317E-01   0.67340237E-01
  7717.2330       0.23517090       0.43517091       0.23517091       0.23517091       0.55348176E-01   0.23080649
  7717.3500       0.24351725       0.44351726       0.24351726       0.24351726       0.92904133E-01   0.68521967E-03
  7717.4620       0.25644595       0.45644596       0.25644596       0.25644596       0.55505092E-01  -0.22355420
  7717.5920       0.25694948       0.45694949       0.25694949       0.25694949       0.38804017E-01   0.11684762
  7717.7100       0.26606935       0.46606935       0.26606935       0.26606935       0.84483302E-01   0.17177350
  7717.8420       0.27807031       0.47807031       0.27807031       0.27807031       0.81747391E-01  -0.58643108E-01
  7717.9600       0.28650619       0.48650620       0.28650620       0.28650620       0.69822525E-01   0.10670886
  7718.0740       0.29426913       0.49426914       0.29426914       0.29426914       0.10650385       0.14798505
  7718.2060       0.31270614       0.51270615       0.31270615       0.31270615       0.10622685      -0.16870835
  7718.3280       0.32125075       0.52125076       0.32125076       0.32125076       0.63651926E-01  -0.59491077E-01
  7718.4410       0.32766434       0.52766435       0.32766435       0.32766435       0.92246445E-01   0.17381638
  7718.5730       0.34385113       0.54385114       0.34385114       0.34385114       0.10623694      -0.98000423E-01
  7718.6930       0.35443605       0.55443606       0.35443606       0.35443606       0.67550339E-01  -0.79601507E-01
  7718.8050       0.35952281       0.55952282       0.35952282       0.35952282       0.87769391E-01   0.32850272
  7718.9360       0.37576401       0.57576402       0.37576402       0.37576402       0.14737650       0.30014857
  7719.0560       0.39651431       0.59651432       0.39651432       0.39651432       0.16310668      -0.10404148
  7719.1680       0.41360476       0.61360477       0.41360477       0.41360477       0.12323888      -0.28197370
  7719.2990       0.42646136       0.62646137       0.42646137       0.42646137       0.94587073E-01   0.80404359E-01
  7719.4200       0.43744071       0.63744071       0.43744071       0.43744071       0.14350077       0.21602680
  7719.5350       0.46032754       0.66032755       0.46032755       0.46032755       0.14556940      -0.76839990E-01
  7719.6660       0.47325078       0.67325079       0.47325079       0.47325079       0.12459814       0.72995961E-01
  7719.7880       0.49185087       0.69185088       0.49185088       0.49185088       0.16403738       0.29739422
  7719.9010       0.51179956       0.71179957       0.51179957       0.51179957       0.19448578       0.55583005E-01
  7720.0340       0.53969437       0.73969438       0.53969438       0.53969438       0.17771080       0.69675952E-01
  7720.1540       0.55676039       0.75676040       0.55676040       0.55676040       0.21211379       0.83287143E-01
  7720.2670       0.58911689       0.78911690       0.58911690       0.58911690       0.19711670      -0.30679380
  7720.3970       0.60465975       0.80465976       0.60465976       0.60465976       0.13756290      -0.13551328
  7720.5160       0.62337005       0.82337006       0.62337006       0.62337006       0.16337389       0.21618312
  7720.6460       0.64533985       0.84533986       0.64533986       0.64533986       0.19139250       0.29506131
  7720.7660       0.67121817       0.87121818       0.67121818       0.67121818       0.23713922       0.10745821
  7720.8790       0.70059329       0.90059330       0.70059330       0.70059330       0.21643026      -0.14371214
  7721.0130       0.72467645       0.92467646       0.72467646       0.72467646       0.20164232      -0.67613812E-01
  7721.1330       0.75181044       0.95181045       0.75181045       0.75181045       0.19925635       0.51078399E-01
  7721.2460       0.77110318       0.97110319       0.77110319       0.77110319       0.21354359       0.18360051
  7721.3790       0.80434216        1.0043422       0.80434218       0.80434218       0.24442207       0.21037413
  7721.5000       0.83318638        1.0331864       0.83312464       0.83312464       0.26697862      -0.14536520E-01
  7721.6120       0.86654818        2.2735455       0.86665930        2.0736566       0.24103507      -0.18521582
  7721.7440       0.89199894        2.2559743       0.89231379        2.0562892       0.22178596       0.14416038
  7721.8620       0.92199467        2.2404038       0.92249164        2.0409008       0.27707516      -0.40536190E-01
  7721.9740       0.95572623        2.2257442       0.95639606        2.0264141       0.21246263      -0.52798324
  7722.1040       0.97341063        2.2088736       0.97428110        2.0097440       0.14930322       0.48191470E-01
  7722.2260       0.99335064        2.1931822       0.99440941        1.9942409       0.22460689       0.29890011
  7722.3580        1.0304608        2.1763577        1.0317233        1.9776202       0.22522385      -0.17034104
  7722.4790        1.0503323        2.1610745        1.0517815        1.9625238       0.18151060      -0.20517981
  7722.5930        1.0731158        2.1467968        1.0747410        1.9484220       0.17700659      -0.21457296
  7722.7240        1.0936989        2.1305347        1.0955263        1.9323621       0.12894023      -0.21386678
  7722.8460        1.1057376        2.1155285        1.1077533        1.9175441       0.12289830       0.17470779
  7722.9580        1.1224571        2.1018694        1.1246456        1.9040579       0.16982185       0.25721355
  7723.0510        1.1405511        2.0906124        1.1428832        1.8929445       0.17562707      -0.11145755
  7723.2130        1.1672420        2.0711867        1.1698241        1.8737688       0.14140018      -0.13360283
  7723.4060        1.1907482        2.0483459        1.1936282        1.8512258       0.12819807      -0.25285383E-01
  7723.6030        1.2172392        2.0253683        1.2204233        1.8285523       0.13153888      -0.54051895E-01
  7723.8000        1.2425745        2.0027284        1.2460626        1.8062165       0.10690162      -0.14491036
  7724.0000        1.2596792        1.9800868        1.2634759        1.7838835       0.74009462E-01  -0.18492637
  7724.1980        1.2720303        1.9580095        1.2761326        1.7621118       0.33300926E-01  -0.15483614
  7724.3960        1.2728663        1.9362659        1.2772743        1.7406739       0.12694351E-01  -0.51189721E-01
  7724.5920        1.2770318        1.9150683        1.2817423        1.7197788       0.13132177E-01  -0.50972421E-01
  7724.7890        1.2780273        1.8940873        1.2830418        1.6991018      -0.73378105E-02  -0.11287690
  7725.0080        1.2739793        1.8711425        1.2793318        1.6764950      -0.33824616E-01  -0.39119709E-01
  7725.7230        1.2464351        1.7989710        1.2528911        1.6054270      -0.43875619E-01  -0.96911870E-02
  7726.5070        1.2082098        1.7245500        1.2158758        1.5322160      -0.48351705E-01   0.11110654E-02
  7727.3020        1.1700878        1.6539696        1.1789808        1.4628626      -0.42121247E-01   0.49618235E-02
  7728.0660        1.1425427        1.5906293        1.1526150        1.4007015      -0.40616222E-01   0.82867020E-02
  7728.8300        1.1080262        1.5315448        1.1192775        1.3427962      -0.29459166E-01   0.21161845E-01
  7729.5930        1.0975586        1.4766446        1.1099876        1.2890736      -0.83020842E-02   0.17360170E-01
  7730.3530        1.0953821        1.4259008        1.1089841        1.2395028      -0.30196276E-02   0.44123023E-02
  7731.1470        1.0928661        1.3769371        1.1076935        1.1917645      -0.14453664E-02   0.39892283E-02
  7731.9100        1.0931317        1.3336394        1.1091367        1.1496444       0.31916008E-02  -0.43721523E-02
  7732.6790        1.0977556        1.2935802        1.1149475        1.1107721      -0.81435038E-02  -0.79296660E-02
  7733.4410        1.0806640        1.2572888        1.0990319        1.0756567      -0.89487178E-02   0.49726112E-02
  7734.2140        1.0840193        1.2237906        1.1035804        1.0433516      -0.51054558E-03  -0.28948570E-02
  7734.9760        1.0798803        1.1938976        1.1006174        1.0146347      -0.13392323E-01  -0.99259336E-02
  7735.7750        1.0631139        1.1657357        1.0850842       0.98770597      -0.16004928E-01   0.75679673E-02
  7736.5390        1.0548646        1.1417083        1.0780140       0.96485774      -0.15635904E-02   0.68586958E-02
  7737.3090        1.0607154        1.1202165        1.0850532       0.94455432      -0.54836886E-02  -0.11931371E-01
  7738.0780        1.0464252        1.1013386        1.0719499       0.92686328      -0.19925970E-01  -0.77321914E-02
  7738.8440        1.0301290        1.0849608        1.0568360       0.91166774      -0.17352602E-01   0.63734507E-02
  7739.6160        1.0197369        1.0707607        1.0476353       0.89865915      -0.10123603E-01   0.14725240E-02
  7740.3880        1.0144982        1.0587306        1.0435881       0.88782050      -0.15079025E-01  -0.74951168E-02
  7741.1610       0.99643978        1.0487132        1.0267228       0.87899622      -0.21703559E-01  -0.56469229E-02
  7741.9520       0.98055380        1.0404116        1.0120576       0.87191539      -0.23910813E-01  -0.63345913E-04
  7744.4520       0.91774929        1.0253740       0.95311161       0.86073631      -0.21912030E-01   0.14784223E-02
  7746.9690       0.87062115        1.0235615       0.90986820       0.86280850      -0.16493568E-01   0.17823751E-02
  7749.4530       0.83526496        1.0299752       0.87834581       0.87305599      -0.12998372E-01   0.10729962E-02
  7751.9350       0.80607123        1.0396662       0.85298280       0.88657777      -0.11165069E-01   0.97979348E-03
  7754.4550       0.77941728        1.0491330       0.83021820       0.89993388      -0.80974451E-02   0.20959260E-02
  7756.9490       0.76547064        1.0576374       0.82012080       0.91228755      -0.65609583E-03   0.26969747E-02
  7759.4300       0.77615321        1.0652677       0.83463253       0.92374699       0.53200042E-02   0.15755584E-02
  7761.9470       0.79206003        1.0721869       0.85442408       0.93455095       0.72185451E-02   0.11617034E-02
  7764.4680       0.81252024        1.0783118       0.87877520       0.94456678       0.11172666E-01   0.82077369E-03
  7766.9650       0.84812446        1.0836081       0.91823329       0.95371687       0.11337188E-01   0.80354041E-04
  7769.4620       0.86913815        1.0881615       0.94310084       0.96212414       0.11573954E-01  -0.95161919E-05
  7771.9870       0.90624886        1.0920349       0.98410863       0.96989462       0.11289397E-01  -0.12119598E-02
  7774.4880       0.92587866        1.0951709        1.0075985       0.97689067       0.54826445E-02  -0.18212682E-02
  7776.9970       0.93371691        1.0976405        1.0193091       0.98323267       0.21648436E-02  -0.75649611E-03
  7780.5620       0.93902792        1.1000316        1.0301223       0.99112600       0.88768713E-03  -0.86119350E-03
  7784.1490       0.94006565        1.1011762        1.0366962       0.99780679      -0.39944123E-02  -0.58411352E-03
  7787.6930       0.91054377        1.1011336        1.0126441        1.0032339      -0.32776264E-02   0.67678276E-03
  7791.2820       0.91668634        1.0999715        1.0243260        1.0076111       0.83307913E-03   0.28016052E-03
  7794.8620       0.91651611        1.0977608        1.0296811        1.0109258      -0.12691556E-02  -0.60088426E-03
  7798.4360       0.90760680        1.0945762        1.0262879        1.0132573      -0.34656469E-02  -0.29169743E-03
  7802.0150       0.89172634        1.0904784        1.0159312        1.0146833      -0.33556673E-02   0.22193915E-04
  7805.6140       0.88351982        1.0855115        1.0132794        1.0152711      -0.33063390E-02   0.10424344E-03
  7809.2040       0.86795707        1.0797825        1.0032575        1.0150828      -0.26062613E-02   0.48888647E-03
  7812.8090       0.86476777        1.0733224        1.0056321        1.0141867       0.21119922E-03  -0.19917471E-04
  7816.3810       0.86947285        1.0662930        1.0158502        1.0126704      -0.27492090E-02  -0.57628352E-03
  7819.9940       0.84501471        1.0586180       0.99696835        1.0105716      -0.39293978E-02   0.49368462E-05
  7823.6050       0.84108688        1.0504513       0.99861373        1.0079781      -0.27135452E-02  -0.61337215E-04
  7827.2230       0.82539849        1.0418437       0.98850935        1.0049546      -0.43728046E-02   0.84545852E-04
  7830.8140       0.80956333        1.0329513       0.97821653        1.0016044      -0.21040541E-02   0.72017611E-03
  7834.4380       0.81021774        1.0236966       0.98446421       0.99794302       0.82326603E-03  -0.50646968E-04
  7838.0600       0.81552871        1.0142379       0.99536538       0.99407459      -0.24710421E-02  -0.35100429E-03
  7841.6900       0.79229774        1.0046218       0.97773693       0.99006093      -0.17222171E-02   0.74742769E-03
  7845.3200       0.80302542       0.99494185       0.99406714       0.98598356       0.29552830E-02   0.12885675E-02
