# XDI/1.0 Athena/0.9.26
# Element.edge:                  K
# Element.symbol:                Co
# Column.1:                      energy eV
# Column.2:                      norm
# Column.3:                      nbkg
# Column.4:                      flat
# Column.5:                      fbkg
# Column.6:                      nder
# Column.7:                      nsec
# Athena.e0:                     7721.54
# Athena.eshift:                 0
# Athena.rbkg:                   1.0
# Athena.importance:             1
# Athena.standard:               None
# Athena.bkg_kweight:            3
# Athena.edge_step:              1.1927457
# Athena.fixed_step:             no
# Athena.pre_edge_range:         -82.964 -19.904
# Athena.pre_edge_line:          -0.005327 + 0.000215331 * E
# Athena.normalization_range:    45 125.256
# Athena.post_edge_polynomial:   15.561645 - 0.00164624 * E + 0 * E^2 + 0 * E^3
# Athena.spline_range_energy:    0.000 125.180
# Athena.clamps:                 0 24
# Athena.spline_range_k:         0.000 5.732
# Athena.kweight:                2
# Athena.window:                 hanning
# Athena.phase_correction:       no
# Athena.k_range:                .4 5.35
# Athena.dk:                     .5
# Athena.r_range:                .4 5.1
# Athena.dr:                     .5
# Athena.window:                 hanning
# Athena.plot_multiplier:        1
# Athena.y_offset:               0.2
# ///
#------------------------
#   e         norm        nbkg        flat        fbkg        nder        nsec
  7600.0670      -0.21190697      -0.11906971E-01  -0.21190697      -0.21190697       0.12104660E-01  -0.50232775E-03
  7610.6410      -0.83912290E-01   0.11608771      -0.83912292E-01  -0.83912292E-01   0.67930466E-02  -0.37713617E-03
  7624.5560      -0.45552049E-01   0.15444795      -0.45552050E-01  -0.45552050E-01   0.28689724E-02  -0.21078113E-03
  7637.2000      -0.77152513E-02   0.19228475      -0.77152515E-02  -0.77152515E-02   0.11949106E-02  -0.12874992E-03
  7649.6990      -0.15508411E-01   0.18449159      -0.15508412E-01  -0.15508412E-01  -0.36818681E-03   0.10463232E-03
  7662.1990      -0.16919553E-01   0.18308045      -0.16919554E-01  -0.16919554E-01   0.38106140E-02   0.24574140E-04
  7674.7330       0.79886499E-01   0.27988650       0.79886501E-01   0.79886501E-01   0.24700220E-03  -0.29052352E-03
  7687.3310      -0.10711894E-01   0.18928811      -0.10711894E-01  -0.10711894E-01  -0.34908231E-02   0.36920153E-05
  7700.0100      -0.83510371E-02   0.19164896      -0.83510372E-02  -0.83510372E-02   0.34032527E-03   0.93501104E-03
  7700.3880      -0.62682671E-02   0.19373173      -0.62682672E-02  -0.62682672E-02   0.87176160E-02   0.63318542E-02
  7700.7190      -0.21702473E-02   0.19782975      -0.21702473E-02  -0.21702473E-02   0.48296099E-02  -0.22544968E-01
  7701.0710      -0.29696435E-02   0.19703036      -0.29696436E-02  -0.29696436E-02  -0.66805972E-02  -0.55151499E-02
  7701.4340      -0.69468743E-02   0.19305313      -0.69468744E-02  -0.69468744E-02   0.88627773E-03   0.17909348E-01
  7701.7980      -0.23253196E-02   0.19767468      -0.23253196E-02  -0.23253196E-02   0.63394987E-02  -0.60256020E-02
  7702.1550      -0.23760958E-02   0.19762390      -0.23760958E-02  -0.23760958E-02  -0.34581813E-02  -0.17336849E-01
  7702.5150      -0.48048356E-02   0.19519516      -0.48048357E-02  -0.48048357E-02  -0.60910222E-02   0.67536550E-03
  7702.8790      -0.67859958E-02   0.19321400      -0.67859959E-02  -0.67859959E-02  -0.29692167E-02   0.74075593E-02
  7703.2420      -0.69634561E-02   0.19303654      -0.69634563E-02  -0.69634563E-02  -0.70572655E-03   0.84129346E-02
  7703.6000      -0.72948247E-02   0.19270518      -0.72948248E-02  -0.72948248E-02   0.30965091E-02   0.12768435E-01
  7703.9610      -0.47370661E-02   0.19526293      -0.47370661E-02  -0.47370661E-02   0.84747783E-02   0.28373756E-02
  7704.3250      -0.11506104E-02   0.19884939      -0.11506104E-02  -0.11506104E-02   0.51536064E-02  -0.14963240E-01
  7704.6870      -0.99554779E-03   0.19900445      -0.99554780E-03  -0.99554780E-03  -0.23885338E-02  -0.14527325E-01
  7705.0200      -0.28106414E-02   0.19718936      -0.28106414E-02  -0.28106414E-02  -0.49428846E-02   0.41508143E-02
  7705.3810      -0.44259097E-02   0.19557409      -0.44259098E-02  -0.44259098E-02   0.49213134E-03   0.29398235E-01
  7705.7490      -0.24518776E-02   0.19754812      -0.24518777E-02  -0.24518777E-02   0.16488428E-01   0.34502908E-01
  7706.1120       0.76271315E-02   0.20762713       0.76271316E-02   0.76271316E-02   0.25713757E-01   0.18259229E-01
  7706.4710       0.16113455E-01   0.21611346       0.16113455E-01   0.16113455E-01   0.29671591E-01   0.10365870E-01
  7706.8310       0.28961006E-01   0.22896101       0.28961006E-01   0.28961006E-01   0.33166818E-01  -0.58432175E-02
  7707.1960       0.40159398E-01   0.24015940       0.40159399E-01   0.40159399E-01   0.25435259E-01  -0.23454332E-01
  7707.5570       0.47427004E-01   0.24742700       0.47427004E-01   0.47427004E-01   0.16138972E-01  -0.28710601E-01
  7707.9150       0.51763319E-01   0.25176332       0.51763320E-01   0.51763320E-01   0.47923363E-02  -0.20135581E-01
  7708.2800       0.50891863E-01   0.25089186       0.50891864E-01   0.50891864E-01   0.15809471E-02  -0.80224435E-02
  7708.6460       0.52918991E-01   0.25291899       0.52918992E-01   0.52918992E-01  -0.10720699E-02  -0.12459289E-01
  7708.9820       0.50139270E-01   0.25013927       0.50139271E-01   0.50139271E-01  -0.71654740E-02   0.71811326E-02
  7709.2900       0.48304426E-01   0.24830443       0.48304427E-01   0.48304427E-01   0.35525795E-02   0.23019416E-01
  7709.5960       0.52320554E-01   0.25232055       0.52320554E-01   0.52320554E-01   0.69684477E-02  -0.14991049E-01
  7709.9030       0.52576084E-01   0.25257609       0.52576085E-01   0.52576085E-01  -0.56369335E-02  -0.31497490E-01
  7710.2110       0.48853839E-01   0.24885384       0.48853840E-01   0.48853840E-01  -0.12402509E-01  -0.33573651E-02
  7710.5140       0.44998152E-01   0.24499815       0.44998152E-01   0.44998152E-01  -0.76882835E-02   0.18673097E-01
  7710.8230       0.44148610E-01   0.24414861       0.44148611E-01   0.44148611E-01  -0.97457338E-03   0.28678792E-01
  7711.1080       0.44419255E-01   0.24441926       0.44419256E-01   0.44419256E-01   0.93469187E-02   0.13522371E-01
  7711.4160       0.49691333E-01   0.24969133       0.49691334E-01   0.49691334E-01   0.70441923E-02  -0.21969330E-01
  7711.7250       0.48765522E-01   0.24876552       0.48765522E-01   0.48765522E-01  -0.42081578E-02  -0.11865910E-01
  7712.0290       0.47111732E-01   0.24711173       0.47111733E-01   0.47111733E-01  -0.22961044E-03  -0.40763158E-02
  7712.3330       0.48625918E-01   0.24862592       0.48625919E-01   0.48625919E-01  -0.66865578E-02   0.90350861E-02
  7712.6440       0.42999499E-01   0.24299950       0.42999500E-01   0.42999500E-01   0.53269675E-02   0.44312027E-01
  7712.9530       0.51928638E-01   0.25192864       0.51928639E-01   0.51928639E-01   0.20786899E-01   0.31437696E-01
  7713.2350       0.55284556E-01   0.25528456       0.55284557E-01   0.55284557E-01   0.23906646E-01   0.44725776E-01
  7713.5380       0.65914026E-01   0.26591403       0.65914027E-01   0.65914027E-01   0.46951478E-01   0.66542772E-01
  7713.8530       0.84300570E-01   0.28430057       0.84300571E-01   0.84300571E-01   0.65030079E-01   0.42509588E-01
  7714.1610       0.10642777       0.30642777       0.10642777       0.10642777       0.73434951E-01   0.10885416E-02
  7714.4700       0.12960993       0.32960994       0.12960994       0.12960994       0.65701709E-01  -0.40730718E-01
  7714.7770       0.14690002       0.34690002       0.14690002       0.14690002       0.48344829E-01  -0.42705258E-01
  7715.0770       0.15895525       0.35895525       0.15895525       0.15895525       0.39779617E-01  -0.12829445E-03
  7715.3860       0.17112581       0.37112581       0.17112581       0.17112581       0.48266698E-01   0.85497024E-02
  7715.6700       0.18757740       0.38757740       0.18757740       0.18757740       0.44849591E-01  -0.34629667E-01
  7715.9720       0.19740767       0.39740767       0.19740767       0.19740767       0.27973712E-01  -0.50851411E-01
  7716.1370       0.20064112       0.40064112       0.20064112       0.20064112       0.21101982E-01   0.89130637E-02
  7716.2550       0.20337953       0.40337953       0.20337953       0.20337953       0.30496110E-01   0.13670251
  7716.3670       0.20765523       0.40765523       0.20765523       0.20765523       0.52543558E-01   0.18318439
  7716.4990       0.21620015       0.41620016       0.21620016       0.21620016       0.75193102E-01   0.26312239E-01
  7716.6200       0.22667908       0.42667908       0.22667908       0.22667908       0.59200554E-01  -0.87209273E-01
  7716.7330       0.23005308       0.43005309       0.23005309       0.23005309       0.54786132E-01  -0.14645271E-01
  7716.8670       0.24021126       0.44021126       0.24021126       0.24021126       0.55583172E-01  -0.20133679E-02
  7716.9880       0.24422679       0.44422680       0.24422680       0.24422680       0.54272723E-01  -0.13584809E-01
  7717.1010       0.25291107       0.45291108       0.25291108       0.25291108       0.52404327E-01  -0.93915051E-01
  7717.2330       0.25706585       0.45706586       0.25706586       0.25706586       0.31263536E-01   0.69228324E-01
  7717.3500       0.26069569       0.46069570       0.26069570       0.26069570       0.69642180E-01   0.20079345
  7717.4620       0.27301391       0.47301392       0.27301392       0.27301392       0.77245237E-01  -0.99608031E-01
  7717.5920       0.27938904       0.47938905       0.27938905       0.27938905       0.45537036E-01   0.46451454E-01
  7717.7100       0.28430710       0.48430710       0.28430710       0.28430710       0.88765197E-01   0.27094434
  7717.8420       0.30158034       0.50158034       0.30158034       0.30158034       0.11327312      -0.57167234E-01
  7717.9600       0.31262538       0.51262538       0.31262538       0.31262538       0.74473389E-01  -0.10532046
  7718.0740       0.31885817       0.51885817       0.31885817       0.31885817       0.88838774E-01   0.17519824
  7718.2060       0.33447972       0.53447972       0.33447972       0.33447972       0.11757216       0.26332349E-01
  7718.3280       0.34872149       0.54872150       0.34872150       0.34872150       0.95527191E-01  -0.23489487
  7718.4410       0.35692861       0.55692861       0.35692861       0.35692861       0.62371862E-01  -0.74461511E-01
  7718.5730       0.36400260       0.56400261       0.36400261       0.36400261       0.77284121E-01   0.15181487
  7718.6930       0.37640420       0.57640421       0.37640421       0.37640421       0.10062921       0.18798604
  7718.8050       0.38734858       0.58734858       0.38734858       0.38734858       0.12089688       0.10553297
  7718.9360       0.40578215       0.60578215       0.40578215       0.40578215       0.12627372       0.86941848E-01
  7719.0560       0.41904328       0.61904329       0.41904329       0.41904329       0.14271928       0.13857543E-01
  7719.1680       0.43889302       0.63889303       0.43889303       0.43889303       0.12948867      -0.12366333
  7719.2990       0.45050903       0.65050903       0.45050903       0.45050903       0.11266910       0.22647780
  7719.4200       0.46728563       0.66728564       0.46728564       0.46728564       0.18656107       0.20117027
  7719.5350       0.49453744       0.69453745       0.49453745       0.49453745       0.16014528      -0.28557236
  7719.6660       0.50668137       0.70668138       0.50668138       0.50668138       0.11631027       0.25931962E-01
  7719.7880       0.52396394       0.72396395       0.52396395       0.52396395       0.16670607       0.24627802
  7719.9010       0.54585730       0.74585731       0.54585731       0.54585731       0.17418561       0.23223974E-01
  7720.0340       0.56681360       0.76681361       0.56681361       0.56681361       0.17241916       0.16561833
  7720.1540       0.58947934       0.78947935       0.58947935       0.58947935       0.21608705       0.11900325
  7720.2670       0.61716188       0.81716189       0.61716189       0.61716189       0.20014692      -0.24090501
  7720.3970       0.63811505       0.83811506       0.63811506       0.63811506       0.15754713      -0.11524941
  7720.5160       0.65639112       0.85639113       0.65639113       0.65639113       0.17144982       0.75000800E-01
  7720.6460       0.68080605       0.88080606       0.68080606       0.68080606       0.17622233       0.18610922
  7720.7660       0.70044670       0.90044671       0.70044671       0.70044671       0.21797712       0.25833935
  7720.8790       0.73159472       0.93159473       0.73159473       0.73159473       0.23641540      -0.10759317
  7721.0130       0.75884130       0.95884132       0.75884132       0.75884132       0.19140161      -0.19483733
  7721.1330       0.78021073       0.98021074       0.78021074       0.78021074       0.18692672       0.41002962E-01
  7721.2460       0.80239523        1.0023952       0.80239524       0.80239524       0.20095530       0.13510353
  7721.3790       0.82964573        1.0296457       0.82964574       0.82964574       0.22016219       0.21816691
  7721.5000       0.85831642        1.0583164       0.85825399       0.85825399       0.25636969       0.12197760
  7721.6120       0.88937987        2.2514989       0.88949224        2.0516113       0.24858297      -0.14121125
  7721.7440       0.91897067        2.2342294       0.91928906        2.0345478       0.22191415      -0.37321525E-01
  7721.8620       0.94485841        2.2189264       0.94536097        2.0194289       0.23925258      -0.10144796
  7721.9740       0.97399876        2.2045188       0.97467612        2.0051961       0.19858112      -0.33667445
  7722.1040       0.99291504        2.1879383       0.99379530        1.9888185       0.15777737       0.11083394E-01
  7722.2260        1.0137587        2.1725169        1.0148293        1.9735875       0.20137413       0.22861112
  7722.3580        1.0440641        2.1559822        1.0453408        1.9572589       0.21584459      -0.96891258E-01
  7722.4790        1.0683673        2.1409624        1.0698329        1.9424279       0.17686064      -0.31629499
  7722.5930        1.0856263        2.1269309        1.0872698        1.9285744       0.14151527      -0.31331675
  7722.7240        1.1030386        2.1109494        1.1048865        1.9127973       0.10009804      -0.11931628
  7722.8460        1.1109511        2.0962023        1.1129895        1.8982406       0.11132825       0.29014969
  7722.9580        1.1290894        2.0827793        1.1313025        1.8849924       0.16799307       0.21970383
  7723.0510        1.1453897        2.0717169        1.1477480        1.8740752       0.15636754      -0.21420944
  7723.2130        1.1689631        2.0526272        1.1715742        1.8552384       0.11336966      -0.13395003
  7723.4060        1.1856359        2.0301820        1.1885483        1.8330943       0.10881527       0.27182886E-01
  7723.6030        1.2114011        2.0076029        1.2146209        1.8108227       0.12397099      -0.35344747E-01
  7723.8000        1.2344805        1.9853560        1.2380078        1.7888833       0.94889443E-01  -0.16866873
  7724.0000        1.2490722        1.9631079        1.2529116        1.7669473       0.57009498E-01  -0.19067784
  7724.1980        1.2571703        1.9414148        1.2613187        1.7455632       0.18999662E-01  -0.13526050
  7724.3960        1.2565960        1.9200501        1.2610535        1.7245075       0.34463409E-02  -0.20120344E-01
  7724.5920        1.2585281        1.8992223        1.2632915        1.7039856       0.11072246E-01  -0.14314493E-01
  7724.7890        1.2609474        1.8786077        1.2660183        1.6836786      -0.21792550E-02  -0.97019432E-01
  7725.0080        1.2576216        1.8560642        1.2630342        1.6614769      -0.29287838E-01  -0.39961882E-01
  7725.7230        1.2335926        1.7851591        1.2401212        1.5916877      -0.39503652E-01  -0.10567600E-01
  7726.5070        1.1984056        1.7120509        1.2061578        1.5198032      -0.45128670E-01   0.11228156E-02
  7727.3020        1.1623344        1.6427233        1.1713275        1.4517163      -0.37730727E-01   0.59141006E-02
  7728.0660        1.1395834        1.5805146        1.1497688        1.3907000      -0.35908587E-01   0.60340149E-02
  7728.8300        1.1074661        1.5224930        1.1188440        1.3338709      -0.28510752E-01   0.17680558E-01
  7729.5930        1.0960475        1.4685878        1.1086162        1.2811565      -0.89103758E-02   0.16495387E-01
  7730.3530        1.0938956        1.4187712        1.1076505        1.2325261      -0.33882778E-02   0.38988542E-02
  7731.1470        1.0907821        1.3707102        1.1057762        1.1857043      -0.28515564E-02   0.30708494E-02
  7731.9100        1.0894557        1.3282188        1.1056407        1.1444038       0.13930347E-02  -0.30081805E-02
  7732.6790        1.0929162        1.2889137        1.1103014        1.1062989      -0.74600889E-02  -0.63271281E-02
  7733.4410        1.0780343        1.2533136        1.0966088        1.0718880      -0.82937984E-02   0.40316582E-02
  7734.2140        1.0801852        1.2204622        1.0999662        1.0402431      -0.12714935E-02  -0.29598517E-02
  7734.9760        1.0760826        1.1911549        1.0970528        1.0121251      -0.12837171E-01  -0.89081838E-02
  7735.7750        1.0601464        1.1635545        1.0823637       0.98577170      -0.15177169E-01   0.85170529E-02
  7736.5390        1.0523607        1.1400155        1.0757703       0.96342515       0.47498281E-03   0.64731751E-02
  7737.3090        1.0608750        1.1189703        1.0854865       0.94358170      -0.52473179E-02  -0.14190109E-01
  7738.0780        1.0442851        1.1004948        1.0700967       0.92630646      -0.21363596E-01  -0.77648309E-02
  7738.8440        1.0280819        1.0844768        1.0550891       0.91148393      -0.17166333E-01   0.66768389E-02
  7739.6160        1.0178832        1.0705999        1.0460953       0.89881192      -0.11094617E-01   0.10421567E-02
  7740.3880        1.0109518        1.0588555        1.0403688       0.88827250      -0.15557243E-01  -0.65572322E-02
  7741.1610       0.99384729        1.0490892        1.0244707       0.87971264      -0.21225541E-01  -0.54621536E-02
  7741.9520       0.97775508        1.0410103        1.0096131       0.87286822      -0.24100052E-01  -0.12871310E-03
  7744.4520       0.91453402        1.0264758       0.95029387       0.86223560      -0.21649136E-01   0.16429014E-02
  7746.9690       0.86914136        1.0249200       0.90882962       0.86460826      -0.15857615E-01   0.18077300E-02
  7749.4530       0.83523009        1.0314156       0.87879523       0.87498072      -0.12608678E-01   0.10602229E-02
  7751.9350       0.80652667        1.0410915       0.85396559       0.88853043      -0.10592549E-01   0.10601258E-02
  7754.4550       0.78224616        1.0505009       0.83361816       0.90187285      -0.73059295E-02   0.19361509E-02
  7756.9490       0.76989474        1.0589171       0.82515925       0.91418164      -0.88468821E-03   0.25163426E-02
  7759.4300       0.77784483        1.0664316       0.83698156       0.92556832       0.52128751E-02   0.17571881E-02
  7761.9470       0.79594869        1.0732076       0.85901382       0.93627272       0.78977377E-02   0.11779487E-02
  7764.4680       0.81763364        1.0791660       0.88463341       0.94616573       0.11147381E-01   0.46717321E-03
  7766.9650       0.85188624        1.0842773       0.92278320       0.95517428       0.10242013E-01  -0.27594367E-04
  7769.4620       0.86878225        1.0886290       0.94357640       0.96342309       0.11009574E-01   0.17314076E-03
  7771.9870       0.90717633        1.0922840       0.98591136       0.97101904       0.11111526E-01  -0.12059796E-02
  7774.4880       0.92462878        1.0951925        1.0072672       0.97783094       0.49483208E-02  -0.18203328E-02
  7776.9970       0.93196741        1.0974254        1.0185218       0.98397981       0.19916583E-02  -0.65216033E-03
  7780.5620       0.93672611        1.0994715        1.0288446       0.99158998       0.98709897E-03  -0.83445879E-03
  7784.1490       0.93902714        1.1002662        1.0367440       0.99798306      -0.39763910E-02  -0.57826980E-03
  7787.6930       0.90837047        1.0998833        1.0116186        1.0031315      -0.31365430E-02   0.65853520E-03
  7791.2820       0.91665418        1.0983907        1.0255038        1.0072404       0.72094056E-03   0.19772765E-03
  7794.8620       0.91353889        1.0958727        1.0279760        1.0103098      -0.17190335E-02  -0.58671148E-03
  7798.4360       0.90435622        1.0924121        1.0243715        1.0124273      -0.34763934E-02  -0.23006903E-03
  7802.0150       0.88867225        1.0880771        1.0142734        1.0136782      -0.33647173E-02   0.46044748E-04
  7805.6140       0.88020428        1.0829196        1.0114226        1.0141379      -0.31458842E-02   0.10834035E-03
  7809.2040       0.86605649        1.0770570        1.0028779        1.0138784      -0.25858585E-02   0.43488819E-03
  7812.8090       0.86159903        1.0705282        1.0040469        1.0129761      -0.16863634E-04  -0.50042926E-06
  7816.3810       0.86593546        1.0635038        1.0139583        1.0115266      -0.25894501E-02  -0.49600228E-03
  7819.9940       0.84299383        1.0559162       0.99665568        1.0095781      -0.35806400E-02   0.91709900E-05
  7823.6050       0.84006891        1.0479285       0.99936662        1.0072262      -0.25231988E-02  -0.12042668E-03
  7827.2230       0.82475362        1.0396007       0.98969812        1.0045452      -0.44512045E-02   0.88740335E-04
  7830.8140       0.80798018        1.0310940       0.97852932        1.0016431      -0.18834697E-02   0.73461238E-03
  7834.4380       0.81116439        1.0223463       0.98736968       0.99855153       0.84902387E-03  -0.14663793E-03
  7838.0600       0.81413221        1.0135212       0.99599052       0.99537954      -0.29460082E-02  -0.34410169E-03
  7841.6900       0.78979994        1.0046761       0.97732377       0.99219989      -0.16464016E-02   0.87552475E-03
  7845.3200       0.80217933       0.99591215       0.99536868       0.98910148       0.34103015E-02   0.13930311E-02
