# XDI/1.0 Athena/0.9.26
# Element.edge:                  K
# Element.symbol:                Co
# Column.1:                      energy eV
# Column.2:                      norm
# Column.3:                      nbkg
# Column.4:                      flat
# Column.5:                      fbkg
# Column.6:                      nder
# Column.7:                      nsec
# Athena.e0:                     7721.54
# Athena.eshift:                 0
# Athena.rbkg:                   1.0
# Athena.importance:             1
# Athena.standard:               None
# Athena.bkg_kweight:            3
# Athena.edge_step:              1.1916905
# Athena.fixed_step:             no
# Athena.pre_edge_range:         -82.964 -19.904
# Athena.pre_edge_line:          -0.034843 + 0.000219169 * E
# Athena.normalization_range:    45 125.256
# Athena.post_edge_polynomial:   15.515757 - 0.00164042 * E + 0 * E^2 + 0 * E^3
# Athena.spline_range_energy:    0.000 125.180
# Athena.clamps:                 0 24
# Athena.spline_range_k:         0.000 5.732
# Athena.kweight:                2
# Athena.window:                 hanning
# Athena.phase_correction:       no
# Athena.k_range:                .4 5.35
# Athena.dk:                     .5
# Athena.r_range:                .4 5.1
# Athena.dr:                     .5
# Athena.window:                 hanning
# Athena.plot_multiplier:        1
# Athena.y_offset:               0.2
# ///
#------------------------
#   e         norm        nbkg        flat        fbkg        nder        nsec
  7600.0670      -0.21355583      -0.13555837E-01  -0.21355584      -0.21355584       0.12349892E-01  -0.52061304E-03
  7610.6410      -0.82968066E-01   0.11703193      -0.82968069E-01  -0.82968069E-01   0.68449302E-02  -0.38896532E-03
  7624.5560      -0.45930332E-01   0.15406967      -0.45930334E-01  -0.45930334E-01   0.28245207E-02  -0.21268892E-03
  7637.2000      -0.79516207E-02   0.19204838      -0.79516210E-02  -0.79516210E-02   0.11961252E-02  -0.12522413E-03
  7649.6990      -0.15856155E-01   0.18414384      -0.15856156E-01  -0.15856156E-01  -0.32398959E-03   0.10586073E-03
  7662.1990      -0.16051037E-01   0.18394896      -0.16051037E-01  -0.16051037E-01   0.38425376E-02   0.20011593E-04
  7674.7330       0.80337930E-01   0.28033793       0.80337933E-01   0.80337933E-01   0.17698063E-03  -0.29257799E-03
  7687.3310      -0.11603159E-01   0.18839684      -0.11603160E-01  -0.11603160E-01  -0.35105324E-02   0.84272265E-05
  7700.0100      -0.83977965E-02   0.19160220      -0.83977968E-02  -0.83977969E-02   0.38999563E-03   0.92781130E-03
  7700.3880      -0.65109863E-02   0.19348901      -0.65109865E-02  -0.65109865E-02   0.86038998E-02   0.70536193E-02
  7700.7190      -0.22976316E-02   0.19770237      -0.22976317E-02  -0.22976317E-02   0.53910117E-02  -0.21382753E-01
  7701.0710      -0.28289253E-02   0.19717107      -0.28289254E-02  -0.28289254E-02  -0.60005208E-02  -0.64311713E-02
  7701.4340      -0.65880040E-02   0.19341200      -0.65880042E-02  -0.65880042E-02   0.79272425E-03   0.16439245E-01
  7701.7980      -0.22526148E-02   0.19774739      -0.22526148E-02  -0.22526149E-02   0.59508100E-02  -0.51532623E-02
  7702.1550      -0.22974699E-02   0.19770253      -0.22974700E-02  -0.22974700E-02  -0.29227779E-02  -0.16285338E-01
  7702.5150      -0.43482465E-02   0.19565175      -0.43482466E-02  -0.43482467E-02  -0.57257772E-02   0.10430851E-02
  7702.8790      -0.64429326E-02   0.19355707      -0.64429329E-02  -0.64429329E-02  -0.21675843E-02   0.84004333E-02
  7703.2420      -0.59240802E-02   0.19407592      -0.59240805E-02  -0.59240805E-02   0.38133780E-03   0.60180512E-02
  7703.6000      -0.61679881E-02   0.19383201      -0.61679883E-02  -0.61679883E-02   0.21714307E-02   0.10982811E-01
  7703.9610      -0.43628216E-02   0.19563718      -0.43628218E-02  -0.43628218E-02   0.82779789E-02   0.32055224E-02
  7704.3250      -0.16645338E-03   0.19983355      -0.16645339E-03  -0.16645341E-03   0.44954344E-02  -0.15872625E-01
  7704.6870      -0.10991362E-02   0.19890086      -0.10991363E-02  -0.10991363E-02  -0.32455468E-02  -0.12775869E-01
  7705.0200      -0.24221084E-02   0.19757789      -0.24221085E-02  -0.24221085E-02  -0.43837943E-02   0.56699596E-02
  7705.3810      -0.41414895E-02   0.19585851      -0.41414896E-02  -0.41414897E-02   0.68940512E-03   0.29639844E-01
  7705.7490      -0.19195321E-02   0.19808047      -0.19195321E-02  -0.19195322E-02   0.17223652E-01   0.33764385E-01
  7706.1120       0.84489999E-02   0.20844900       0.84490002E-02   0.84490002E-02   0.25371171E-01   0.18653121E-01
  7706.4710       0.16398453E-01   0.21639845       0.16398454E-01   0.16398454E-01   0.30691205E-01   0.99350994E-02
  7706.8310       0.30515976E-01   0.23051598       0.30515977E-01   0.30515977E-01   0.32514507E-01  -0.78884403E-02
  7707.1960       0.39971471E-01   0.23997147       0.39971472E-01   0.39971472E-01   0.24972086E-01  -0.22269180E-01
  7707.5570       0.48645711E-01   0.24864571       0.48645712E-01   0.48645712E-01   0.16347083E-01  -0.28089752E-01
  7707.9150       0.51725023E-01   0.25172502       0.51725025E-01   0.51725025E-01   0.47755541E-02  -0.18325562E-01
  7708.2800       0.52098436E-01   0.25209844       0.52098438E-01   0.52098438E-01   0.30977009E-02  -0.10325125E-01
  7708.6460       0.53989442E-01   0.25398944       0.53989444E-01   0.53989444E-01  -0.27721122E-02  -0.18639889E-01
  7708.9820       0.50152414E-01   0.25015242       0.50152415E-01   0.50152415E-01  -0.99875015E-02   0.67301528E-02
  7709.2900       0.47557491E-01   0.24755749       0.47557493E-01   0.47557493E-01   0.15621062E-02   0.28136106E-01
  7709.5960       0.51111547E-01   0.25111155       0.51111549E-01   0.51111549E-01   0.72880673E-02  -0.66171740E-02
  7709.9030       0.52025077E-01   0.25202508       0.52025079E-01   0.52025079E-01  -0.24942215E-02  -0.30810534E-01
  7710.2110       0.49577601E-01   0.24957760       0.49577602E-01   0.49577602E-01  -0.11660411E-01  -0.10379293E-01
  7710.5140       0.44900566E-01   0.24490057       0.44900567E-01   0.44900567E-01  -0.88359696E-02   0.22121343E-01
  7710.8230       0.44169987E-01   0.24416999       0.44169989E-01   0.44169989E-01   0.18778508E-02   0.37410663E-01
  7711.1080       0.46016009E-01   0.24601601       0.46016011E-01   0.46016011E-01   0.13385964E-01   0.60752901E-02
  7711.4160       0.52107864E-01   0.25210787       0.52107866E-01   0.52107866E-01   0.54804978E-02  -0.25898696E-01
  7711.7250       0.49397476E-01   0.24939748       0.49397478E-01   0.49397478E-01  -0.25935312E-02  -0.76560049E-02
  7712.0290       0.50518029E-01   0.25051803       0.50518031E-01   0.50518031E-01   0.78736687E-03  -0.27850438E-02
  7712.3330       0.49876195E-01   0.24987620       0.49876197E-01   0.49876197E-01  -0.42868378E-02   0.13111423E-01
  7712.6440       0.47881624E-01   0.24788163       0.47881626E-01   0.47881626E-01   0.88508918E-02   0.31870696E-01
  7712.9530       0.55363748E-01   0.25536375       0.55363750E-01   0.55363750E-01   0.15472994E-01   0.29598020E-01
  7713.2350       0.57026163E-01   0.25702617       0.57026165E-01   0.57026165E-01   0.26343321E-01   0.54751029E-01
  7713.5380       0.70774591E-01   0.27077459       0.70774594E-01   0.70774594E-01   0.47502346E-01   0.57145274E-01
  7713.8530       0.86382613E-01   0.28638262       0.86382616E-01   0.86382616E-01   0.61659101E-01   0.52598660E-01
  7714.1610       0.10918821       0.30918821       0.10918821       0.10918821       0.80271310E-01   0.22845948E-01
  7714.4700       0.13591001       0.33591002       0.13591002       0.13591002       0.75755051E-01  -0.43249232E-01
  7714.7770       0.15585332       0.35585333       0.15585333       0.15585333       0.53629783E-01  -0.65610651E-01
  7715.0770       0.16846329       0.36846330       0.16846330       0.16846330       0.35929386E-01  -0.14642109E-01
  7715.3860       0.17773432       0.37773432       0.17773432       0.17773432       0.44712739E-01   0.24926308E-01
  7715.6700       0.19497794       0.39497795       0.19497795       0.19497795       0.50710686E-01  -0.27732310E-01
  7715.9720       0.20745078       0.40745079       0.20745079       0.20745079       0.28461605E-01  -0.67111356E-01
  7716.1370       0.20826951       0.40826952       0.20826952       0.20826952       0.19369683E-01   0.50830844E-01
  7716.2550       0.21293240       0.41293241       0.21293241       0.21293241       0.42846734E-01   0.15343972
  7716.3670       0.21812426       0.41812427       0.21812427       0.21812427       0.54660819E-01   0.11045428
  7716.4990       0.22626964       0.42626965       0.22626965       0.22626965       0.69797579E-01   0.44777020E-01
  7716.6200       0.23578305       0.43578306       0.23578306       0.23578306       0.65989405E-01  -0.10721310
  7716.7330       0.24171116       0.44171117       0.24171117       0.24171117       0.44709713E-01  -0.88740903E-01
  7716.8670       0.24682635       0.44682636       0.24682636       0.24682636       0.44070402E-01  -0.25807004E-01
  7716.9880       0.25294911       0.45294912       0.25294912       0.25294912       0.38128927E-01  -0.32636387E-01
  7717.1010       0.25574852       0.45574853       0.25574853       0.25574853       0.36433488E-01   0.11911766
  7717.2330       0.26187532       0.46187533       0.26187533       0.26187533       0.67312753E-01   0.27328281
  7717.3500       0.27250939       0.47250940       0.27250940       0.27250940       0.10448091      -0.82458249E-01
  7717.4620       0.28580145       0.48580146       0.28580146       0.28580146       0.48429814E-01  -0.23757152
  7717.5920       0.28422941       0.48422942       0.28422942       0.28422942       0.46988601E-01   0.18866543
  7717.7100       0.29745462       0.49745463       0.29745463       0.29745463       0.95218840E-01   0.14768478
  7717.8420       0.30803412       0.50803413       0.30803413       0.30803413       0.83909796E-01   0.29494756E-01
  7717.9600       0.31843207       0.51843208       0.31843208       0.31843208       0.10259253       0.19422989
  7718.0740       0.33183559       0.53183560       0.33183560       0.33183560       0.12897113      -0.40371951E-01
  7718.2060       0.35015897       0.55015898       0.35015898       0.35015898       0.92661029E-01  -0.28978570
  7718.3280       0.35537149       0.55537150       0.35537150       0.35537150       0.55365563E-01   0.46690542E-01
  7718.4410       0.36316987       0.56316989       0.36316989       0.36316989       0.10363331       0.27087088
  7718.5730       0.38076165       0.58076166       0.38076166       0.38076166       0.12172893      -0.36341464E-01
  7718.6930       0.39384556       0.59384558       0.39384558       0.39384558       0.94475257E-01  -0.15736345
  7718.8050       0.40267991       0.60267992       0.40267992       0.40267992       0.85220607E-01   0.18347411
  7718.9360       0.41455417       0.61455419       0.41455419       0.41455419       0.13905947       0.37477717
  7719.0560       0.43758383       0.63758385       0.43758385       0.43758385       0.17928968      -0.43608665E-01
  7719.1680       0.45614938       0.65614939       0.45614939       0.45614939       0.12894226      -0.28053976
  7719.2990       0.46891680       0.66891682       0.46891682       0.46891682       0.11111852       0.43368037E-01
  7719.4200       0.48415124       0.68415126       0.48415126       0.48415126       0.13987100       0.15481682
  7719.5350       0.50192636       0.70192637       0.50192637       0.50192637       0.14765529       0.35798436E-01
  7719.6660       0.52047444       0.72047446       0.52047446       0.52047446       0.14867742       0.21993807E-01
  7719.7880       0.53954174       0.73954176       0.53954176       0.53954176       0.15321972       0.17366284
  7719.9010       0.55648108       0.75648110       0.55648110       0.55648110       0.18948818       0.17875968
  7720.0340       0.58615584       0.78615586       0.58615586       0.58615586       0.19719460       0.10147375
  7720.1540       0.60637131       0.80637133       0.60637133       0.60637133       0.21516104      -0.60457510E-01
  7720.2670       0.63628836       0.83628838       0.63628838       0.63628838       0.18310800      -0.25059715
  7720.3970       0.65086655       0.85086658       0.65086658       0.65086658       0.15426594      -0.79708646E-01
  7720.5160       0.67470058       0.87470060       0.67470060       0.67470060       0.16326055       0.10595327
  7720.6460       0.69151843       0.89151846       0.69151846       0.69151846       0.18064830       0.23188544
  7720.7660       0.71986265       0.91986268       0.71986268       0.71986268       0.22123191       0.10826794
  7720.8790       0.74306547       0.94306549       0.74306549       0.74306549       0.20587473      -0.15300247E-01
  7721.0130       0.77071371       0.97071374       0.77071374       0.77071374       0.21745275      -0.59549366E-01
  7721.1330       0.79829846       0.99829849       0.79829849       0.79829849       0.19074919      -0.97379322E-01
  7721.2460       0.81515827        1.0151583       0.81515830       0.81515830       0.19476336       0.16195132
  7721.3790       0.84621025        1.0462103       0.84621028       0.84621028       0.23058922       0.20913829
  7721.5000       0.87372793        1.0737280       0.87366551       0.87366551       0.24788449      -0.63354377E-01
  7721.6120       0.90396734        2.2410090       0.90407969        2.0411213       0.21582765      -0.12961808
  7721.7440       0.92638988        2.2238904       0.92670821        2.0242087       0.21625768       0.21386739
  7721.8620       0.95803176        2.2087212       0.95853423        2.0092237       0.26929449      -0.98628201E-01
  7721.9740       0.98832761        2.1944397       0.98900485        1.9951169       0.19357319      -0.59693472
  7722.1040        1.0048765        2.1780043        1.0057566        1.9788844       0.12483629       0.37466749E-02
  7722.2260        1.0197864        2.1627180        1.0208568        1.9637885       0.19451735       0.30361475
  7722.3580        1.0542839        2.1463283        1.0555603        1.9476047       0.20195444      -0.16404120
  7722.4790        1.0708808        2.1314402        1.0723461        1.9329055       0.15301493      -0.19388693
  7722.5930        1.0902424        2.1175319        1.0918856        1.9191750       0.15639101      -0.20073976
  7722.7240        1.1091966        2.1016908        1.1110442        1.9035383       0.10383369      -0.21959406
  7722.8460        1.1165123        2.0870733        1.1185503        1.8891112       0.10083371       0.16125728
  7722.9580        1.1327917        2.0737683        1.1350045        1.8759810       0.14156790       0.20286776
  7723.0510        1.1455337        2.0628032        1.1478916        1.8651611       0.14242160      -0.10660233
  7723.2130        1.1691092        2.0438816        1.1717199        1.8464923       0.11438430      -0.10538256
  7723.4060        1.1861402        2.0216342        1.1890520        1.8245460       0.10501079      -0.12143857E-01
  7723.6030        1.2100634        1.9992543        1.2132827        1.8024735       0.10964820      -0.44947498E-01
  7723.8000        1.2293415        1.9772039        1.2328682        1.7807305       0.87301479E-01  -0.11400987
  7724.0000        1.2447221        1.9551525        1.2485609        1.7589912       0.64386278E-01  -0.17027777
  7724.1980        1.2549673        1.9336514        1.2591150        1.7377991       0.19530927E-01  -0.16227839
  7724.3960        1.2524564        1.9124761        1.2569131        1.7169327       0.12403408E-03  -0.28876002E-01
  7724.5920        1.2550162        1.8918331        1.2597787        1.6965956       0.81537819E-02  -0.39047819E-01
  7724.7890        1.2556608        1.8714017        1.2607308        1.6764716      -0.15221759E-01  -0.93202041E-01
  7725.0080        1.2486839        1.8490587        1.2540956        1.6544704      -0.30618267E-01  -0.22156605E-01
  7725.7230        1.2270633        1.7787863        1.2335908        1.5853137      -0.35916028E-01  -0.67450916E-02
  7726.5070        1.1948458        1.7063337        1.2025966        1.5140845      -0.40729159E-01   0.40822966E-03
  7727.3020        1.1627520        1.6376314        1.1717434        1.4466228      -0.35271433E-01   0.36594749E-02
  7728.0660        1.1398576        1.5759873        1.1500412        1.3861709      -0.35024038E-01   0.45012851E-02
  7728.8300        1.1092353        1.5184958        1.1206111        1.3298715      -0.28393469E-01   0.15916082E-01
  7729.5930        1.0965008        1.4650865        1.1090672        1.2776529      -0.10720181E-01   0.15666542E-01
  7730.3530        1.0929084        1.4157318        1.1066608        1.2294841      -0.45333267E-02   0.45554750E-02
  7731.1470        1.0894560        1.3681201        1.1044474        1.1831115      -0.36409726E-02   0.30682504E-02
  7731.9100        1.0872394        1.3260299        1.1034215        1.1422119       0.24393916E-03  -0.27345575E-02
  7732.6790        1.0898297        1.2870997        1.1072117        1.1044817      -0.78303146E-02  -0.57377449E-02
  7733.4410        1.0752512        1.2518430        1.0938223        1.0704140      -0.85405483E-02   0.50416695E-02
  7734.2140        1.0767200        1.2193124        1.0964973        1.0390897      -0.91351961E-04  -0.12607318E-02
  7734.9760        1.0751110        1.1902956        1.0960774        1.0112620      -0.10475772E-01  -0.95484634E-02
  7735.7750        1.0603673        1.1629732        1.0825805       0.98518636      -0.14996503E-01   0.64288145E-02
  7736.5390        1.0516715        1.1396758        1.0750769       0.96308117      -0.42753455E-03   0.64703205E-02
  7737.3090        1.0597115        1.1188511        1.0843184       0.94345806      -0.50710318E-02  -0.12908858E-01
  7738.0780        1.0438672        1.1005741        1.0696741       0.92638102      -0.20294266E-01  -0.83697489E-02
  7738.8440        1.0285598        1.0847331        1.0555620       0.91173532      -0.17918596E-01   0.52494093E-02
  7739.6160        1.0163084        1.0710149        1.0445153       0.89922178      -0.12220675E-01   0.21640177E-02
  7740.3880        1.0096910        1.0594106        1.0391027       0.88882217      -0.14577353E-01  -0.58056538E-02
  7741.1610       0.99378634        1.0497668        1.0244042       0.88038466      -0.21190410E-01  -0.64246238E-02
  7741.9520       0.97654923        1.0417962        1.0084014       0.87364837      -0.24625465E-01  -0.52605596E-05
  7744.4520       0.91274394        1.0275039       0.94849731       0.86325728      -0.21207722E-01   0.17626543E-02
  7746.9690       0.87015009        1.0260677       0.90983115       0.86574875      -0.15782228E-01   0.18154423E-02
  7749.4530       0.83381701        1.0325963       0.87737427       0.87615354      -0.12128696E-01   0.11017670E-02
  7751.9350       0.80991898        1.0422580       0.85734931       0.88968833      -0.10310853E-01   0.92170082E-03
  7754.4550       0.78224213        1.0516335       0.83360483       0.90299614      -0.75183482E-02   0.20398678E-02
  7756.9490       0.77222198        1.0600021       0.82747649       0.91525658      -0.82956015E-04   0.26054087E-02
  7759.4300       0.78182942        1.0674567       0.84095544       0.92658265       0.54435601E-02   0.14614871E-02
  7761.9470       0.79942890        1.0741606       0.86248261       0.93721425       0.72215563E-02   0.10484766E-02
  7764.4680       0.81821162        1.0800368       0.88519926       0.94702438       0.10725785E-01   0.70270985E-03
  7766.9650       0.85325089        1.0850584       0.92413501       0.95594245       0.10747754E-01  -0.10602244E-04
  7769.4620       0.87188591        1.0893133       0.94666651       0.96409384       0.10672838E-01  -0.75953224E-05
  7771.9870       0.90684988        1.0928649       0.98557066       0.97158569       0.10709611E-01  -0.11873551E-02
  7774.4880       0.92571241        1.0956669        1.0083359       0.97829038       0.47051913E-02  -0.17925967E-02
  7776.9970       0.93042289        1.0977904        1.0169616       0.98432904       0.17287009E-02  -0.59049274E-03
  7780.5620       0.93621254        1.0996791        1.0283143       0.99178086       0.11185384E-02  -0.81042362E-03
  7784.1490       0.93842268        1.1003172        1.0361218       0.99801630      -0.40674488E-02  -0.58177265E-03
  7787.6930       0.90720756        1.0997853        1.0104370        1.0030147      -0.30300823E-02   0.68444496E-03
  7791.2820       0.91680910        1.0981519        1.0256391        1.0069818       0.81469709E-03   0.16677841E-03
  7794.8620       0.91304812        1.0955077        1.0274645        1.0099241      -0.18344479E-02  -0.63071790E-03
  7798.4360       0.90368546        1.0919395        1.0236790        1.0119330      -0.36974588E-02  -0.18882213E-03
  7802.0150       0.88660020        1.0875193        1.0121786        1.0130977      -0.31850927E-02   0.96581086E-04
  7805.6140       0.88082286        1.0823032        1.0120174        1.0134977      -0.30041997E-02   0.74721748E-04
  7809.2040       0.86500301        1.0764134        1.0017996        1.0132100      -0.26479180E-02   0.43963635E-03
  7812.8090       0.86177109        1.0698929        1.0041932        1.0123150       0.15898381E-03  -0.12649683E-04
  7816.3810       0.86614404        1.0629161        1.0141401        1.0109122      -0.27387048E-02  -0.50357795E-03
  7819.9940       0.84209350        1.0554210       0.99572753        1.0090550      -0.34592237E-02   0.52452372E-04
  7823.6050       0.84115460        1.0475743        1.0004235        1.0068432      -0.23597889E-02  -0.14214922E-03
  7827.2230       0.82503458        1.0394411       0.98994921        1.0043557      -0.44868204E-02   0.30112914E-04
  7830.8140       0.80880912        1.0311843       0.97932737        1.0017025      -0.21427049E-02   0.73137151E-03
  7834.4380       0.80957497        1.0227506       0.98574835       0.99892395       0.79002505E-03  -0.67179311E-04
  7838.0600       0.81453364        1.0143057       0.99635903       0.99613110      -0.26294861E-02  -0.31545822E-03
  7841.6900       0.79050594        1.0059125       0.97799581       0.99340232      -0.14976779E-02   0.86134048E-03
  7845.3200       0.80366050       0.99767577       0.99681486       0.99083011       0.36238458E-02   0.14108881E-02
