# XDI/1.0 Athena/0.9.26
# Element.edge:                  K
# Element.symbol:                Co
# Column.1:                      energy eV
# Column.2:                      norm
# Column.3:                      nbkg
# Column.4:                      flat
# Column.5:                      fbkg
# Column.6:                      nder
# Column.7:                      nsec
# Athena.e0:                     7721.54
# Athena.eshift:                 0
# Athena.rbkg:                   1.0
# Athena.importance:             1
# Athena.standard:               None
# Athena.bkg_kweight:            3
# Athena.edge_step:              1.1932649
# Athena.fixed_step:             no
# Athena.pre_edge_range:         -82.964 -19.904
# Athena.pre_edge_line:          -0.003407 + 0.00021509 * E
# Athena.normalization_range:    45 125.256
# Athena.post_edge_polynomial:   15.617532 - 0.00165341 * E + 0 * E^2 + 0 * E^3
# Athena.spline_range_energy:    0.000 125.180
# Athena.clamps:                 0 24
# Athena.spline_range_k:         0.000 5.732
# Athena.kweight:                2
# Athena.window:                 hanning
# Athena.phase_correction:       no
# Athena.k_range:                .4 5.35
# Athena.dk:                     .5
# Athena.r_range:                .4 5.1
# Athena.dr:                     .5
# Athena.window:                 hanning
# Athena.plot_multiplier:        1
# Athena.y_offset:               0.2
# ///
#------------------------
#   e         norm        nbkg        flat        fbkg        nder        nsec
  7600.0670      -0.21197437      -0.11974368E-01  -0.21197437      -0.21197437       0.12179803E-01  -0.51046218E-03
  7610.6410      -0.83185142E-01   0.11681486      -0.83185140E-01  -0.83185140E-01   0.67821755E-02  -0.38143016E-03
  7624.5560      -0.45885678E-01   0.15411432      -0.45885677E-01  -0.45885677E-01   0.28389594E-02  -0.21105559E-03
  7637.2000      -0.77852194E-02   0.19221478      -0.77852192E-02  -0.77852192E-02   0.11767499E-02  -0.12489009E-03
  7649.6990      -0.16298654E-01   0.18370135      -0.16298654E-01  -0.16298654E-01  -0.30115225E-03   0.10569072E-03
  7662.1990      -0.15313725E-01   0.18468628      -0.15313724E-01  -0.15313724E-01   0.38189122E-02   0.19138031E-04
  7674.7330       0.79303994E-01   0.27930399       0.79303991E-01   0.79303991E-01   0.17794920E-03  -0.28991770E-03
  7687.3310      -0.10841505E-01   0.18915850      -0.10841505E-01  -0.10841505E-01  -0.34672994E-02   0.76134811E-05
  7700.0100      -0.83389335E-02   0.19166107      -0.83389333E-02  -0.83389333E-02   0.37039516E-03   0.89271457E-03
  7700.3880      -0.60052556E-02   0.19399474      -0.60052554E-02  -0.60052554E-02   0.81888747E-02   0.50498355E-02
  7700.7190      -0.25330214E-02   0.19746698      -0.25330213E-02  -0.25330213E-02   0.39507285E-02  -0.21105686E-01
  7701.0710      -0.33069080E-02   0.19669309      -0.33069079E-02  -0.33069079E-02  -0.62263089E-02  -0.28110752E-02
  7701.4340      -0.69848322E-02   0.19301517      -0.69848320E-02  -0.69848320E-02   0.19408098E-02   0.18090486E-01
  7701.7980      -0.18959393E-02   0.19810406      -0.18959392E-02  -0.18959392E-02   0.69254742E-02  -0.81751061E-02
  7702.1550      -0.19915654E-02   0.19800843      -0.19915653E-02  -0.19915653E-02  -0.39534417E-02  -0.17636841E-01
  7702.5150      -0.47305570E-02   0.19526944      -0.47305569E-02  -0.47305568E-02  -0.57201405E-02   0.15546358E-02
  7702.8790      -0.61329471E-02   0.19386705      -0.61329469E-02  -0.61329469E-02  -0.28278853E-02   0.56380290E-02
  7703.2420      -0.67864296E-02   0.19321357      -0.67864294E-02  -0.67864294E-02  -0.16212935E-02   0.77845848E-02
  7703.6000      -0.73018997E-02   0.19269810      -0.73018995E-02  -0.73018995E-02   0.27848003E-02   0.14454150E-01
  7703.9610      -0.47841582E-02   0.19521584      -0.47841581E-02  -0.47841581E-02   0.87712406E-02   0.48387908E-02
  7704.3250      -0.94275027E-03   0.19905725      -0.94275024E-03  -0.94275022E-03   0.62929236E-02  -0.14267280E-01
  7704.6870      -0.21549569E-03   0.19978450      -0.21549569E-03  -0.21549567E-03  -0.15868051E-02  -0.17159237E-01
  7705.0200      -0.20455798E-02   0.19795442      -0.20455797E-02  -0.20455797E-02  -0.56327463E-02   0.10694074E-02
  7705.3810      -0.41246216E-02   0.19587538      -0.41246215E-02  -0.41246215E-02  -0.84463634E-03   0.30957009E-01
  7705.7490      -0.26613197E-02   0.19733868      -0.26613196E-02  -0.26613196E-02   0.16934913E-01   0.36306973E-01
  7706.1120       0.82548001E-02   0.20825480       0.82547999E-02   0.82547999E-02   0.25695761E-01   0.17564724E-01
  7706.4710       0.15891020E-01   0.21589102       0.15891019E-01   0.15891019E-01   0.29616644E-01   0.11230328E-01
  7706.8310       0.29549167E-01   0.22954917       0.29549166E-01   0.29549166E-01   0.33770367E-01  -0.36939844E-02
  7707.1960       0.40374536E-01   0.24037453       0.40374535E-01   0.40374535E-01   0.26938505E-01  -0.23346833E-01
  7707.5570       0.49106522E-01   0.24910652       0.49106521E-01   0.49106521E-01   0.16820566E-01  -0.31280299E-01
  7707.9150       0.52468523E-01   0.25246852       0.52468522E-01   0.52468522E-01   0.44479704E-02  -0.21128441E-01
  7708.2800       0.52322405E-01   0.25232240       0.52322403E-01   0.52322403E-01   0.15447038E-02  -0.10399569E-01
  7708.6460       0.53597702E-01   0.25359770       0.53597700E-01   0.53597700E-01  -0.31541147E-02  -0.13213131E-01
  7708.9820       0.50108216E-01   0.25010821       0.50108215E-01   0.50108215E-01  -0.77309140E-02   0.10466121E-01
  7709.2900       0.48618993E-01   0.24861899       0.48618992E-01   0.48618992E-01   0.35860672E-02   0.22853210E-01
  7709.5960       0.52310062E-01   0.25231006       0.52310060E-01   0.52310060E-01   0.63009571E-02  -0.13350203E-01
  7709.9030       0.52481480E-01   0.25248148       0.52481478E-01   0.52481478E-01  -0.45976074E-02  -0.31515269E-01
  7710.2110       0.49482533E-01   0.24948253       0.49482532E-01   0.49482532E-01  -0.13080933E-01  -0.62522943E-02
  7710.5140       0.44489029E-01   0.24448903       0.44489028E-01   0.44489028E-01  -0.84177593E-02   0.19501411E-01
  7710.8230       0.44330864E-01   0.24433086       0.44330863E-01   0.44330863E-01  -0.11460699E-02   0.33948960E-01
  7711.1080       0.43808264E-01   0.24380826       0.43808263E-01   0.43808263E-01   0.11747923E-01   0.17713014E-01
  7711.4160       0.51297383E-01   0.25129738       0.51297381E-01   0.51297381E-01   0.93577474E-02  -0.22675106E-01
  7711.7250       0.49581994E-01   0.24958199       0.49581993E-01   0.49581993E-01  -0.22426173E-02  -0.16217735E-01
  7712.0290       0.49922658E-01   0.24992266       0.49922657E-01   0.49922657E-01  -0.58372422E-03  -0.91077303E-02
  7712.3330       0.49227090E-01   0.24922709       0.49227088E-01   0.49227088E-01  -0.77801173E-02   0.11186677E-01
  7712.6440       0.45137886E-01   0.24513788       0.45137885E-01   0.45137885E-01   0.62960822E-02   0.45327460E-01
  7712.9530       0.53130661E-01   0.25313066       0.53130659E-01   0.53130659E-01   0.20322908E-01   0.33046918E-01
  7713.2350       0.57148725E-01   0.25714872       0.57148723E-01   0.57148723E-01   0.25826811E-01   0.45223293E-01
  7713.5380       0.68239345E-01   0.26823934       0.68239343E-01   0.68239343E-01   0.46778534E-01   0.65961824E-01
  7713.8530       0.86057859E-01   0.28605786       0.86057856E-01   0.86057856E-01   0.66591218E-01   0.45420057E-01
  7714.1610       0.10972567       0.30972567       0.10972567       0.10972567       0.75075230E-01   0.37425009E-03
  7714.4700       0.13237928       0.33237927       0.13237927       0.13237927       0.66822130E-01  -0.41202755E-01
  7714.7770       0.15088811       0.35088810       0.15088810       0.15088810       0.49694333E-01  -0.47221722E-01
  7715.0770       0.16254374       0.36254373       0.16254373       0.16254373       0.38158545E-01  -0.46217252E-02
  7715.3860       0.17412666       0.37412666       0.17412666       0.17412666       0.46879702E-01   0.13741743E-01
  7715.6700       0.19034340       0.39034339       0.19034339       0.19034339       0.46307398E-01  -0.26752251E-01
  7715.9720       0.20126280       0.40126279       0.20126279       0.20126279       0.31202883E-01  -0.59313866E-01
  7716.1370       0.20491515       0.40491514       0.20491514       0.20491514       0.18607823E-01  -0.57282458E-02
  7716.2550       0.20652881       0.40652880       0.20652880       0.20652880       0.29581789E-01   0.16005918
  7716.3670       0.21171896       0.41171895       0.21171895       0.21171895       0.55421435E-01   0.15859315
  7716.4990       0.22005164       0.42005163       0.22005163       0.22005163       0.68278518E-01   0.36894679E-01
  7716.6200       0.22899342       0.42899342       0.22899342       0.22899342       0.64755788E-01  -0.54270615E-01
  7716.7330       0.23520449       0.43520449       0.23520449       0.23520449       0.55579194E-01  -0.39825731E-01
  7716.8670       0.24272148       0.44272148       0.24272148       0.24272148       0.54918833E-01  -0.42251480E-01
  7716.9880       0.24920880       0.44920879       0.24920879       0.24920879       0.44805066E-01  -0.64301710E-01
  7717.1010       0.25320587       0.45320586       0.25320586       0.25320586       0.39872233E-01   0.35031453E-01
  7717.2330       0.25897749       0.45897749       0.25897749       0.25897749       0.53387772E-01   0.20049456
  7717.3500       0.26649942       0.46649942       0.26649942       0.26649942       0.89795378E-01   0.76840050E-01
  7717.4620       0.27954064       0.47954063       0.27954063       0.27954063       0.70984144E-01  -0.20611036
  7717.5920       0.28367759       0.48367758       0.28367758       0.28367758       0.39916670E-01   0.91428424E-01
  7717.7100       0.28943997       0.48943996       0.28943996       0.28943996       0.93658393E-01   0.25425902
  7717.8420       0.30709218       0.50709218       0.30709218       0.30709218       0.10348143      -0.10043297
  7717.9600       0.31531033       0.51531032       0.31531032       0.31531032       0.68550151E-01   0.29474656E-01
  7718.0740       0.32299582       0.52299581       0.32299581       0.32299581       0.11031955       0.22785287
  7718.2060       0.34244893       0.54244892       0.34244892       0.34244892       0.12460196      -0.13590026
  7718.3280       0.35464472       0.55464471       0.35464471       0.35464471       0.75800880E-01  -0.22858803
  7718.4410       0.36026214       0.56026213       0.36026213       0.36026213       0.70883771E-01   0.77542093E-01
  7718.5730       0.37201124       0.57201123       0.37201123       0.37201123       0.94798693E-01   0.86128226E-01
  7718.6930       0.38415141       0.58415140       0.38415140       0.38415140       0.92588084E-01   0.50953752E-01
  7718.8050       0.39349168       0.59349167       0.39349167       0.39349167       0.10661996       0.15952123
  7718.9360       0.41006006       0.61006005       0.41006005       0.41006005       0.13135174       0.21704454
  7719.0560       0.42646096       0.62646095       0.42646095       0.42646095       0.16109814      -0.50829834E-02
  7719.1680       0.44743483       0.64743482       0.44743482       0.44743482       0.13017249      -0.23310836
  7719.2990       0.45809288       0.65809287       0.45809287       0.45809287       0.10445281       0.15619030
  7719.4200       0.47375694       0.67375693       0.47375693       0.47375693       0.16953245       0.21817598
  7719.5350       0.49810254       0.69810252       0.49810252       0.49810252       0.15594234      -0.18452361
  7719.6660       0.51211876       0.71211874       0.51211874       0.51211874       0.12413964       0.72300670E-01
  7719.7880       0.52950987       0.72950985       0.52950985       0.52950985       0.17423441       0.25119632
  7719.9010       0.55306384       0.75306383       0.55306383       0.55306383       0.18317078      -0.20060239E-01
  7720.0340       0.57456988       0.77456986       0.57456986       0.57456986       0.16929959       0.14164446
  7720.1540       0.59589664       0.79589662       0.59589662       0.59589662       0.21900683       0.11716314
  7720.2670       0.62559847       0.82559845       0.62559845       0.62559845       0.19659861      -0.28089509
  7720.3970       0.64367010       0.84367008       0.64367008       0.64367008       0.15074932      -0.12799747
  7720.5160       0.66313505       0.86313503       0.66313503       0.66313503       0.16472724       0.12291182
  7720.6460       0.68468718       0.88468717       0.68468717       0.68468717       0.18135436       0.29498760
  7720.7660       0.70847364       0.90847362       0.70847362       0.70847362       0.23847413       0.16442794
  7720.8790       0.74025166       0.94025164       0.74025164       0.74025164       0.21966607      -0.21954176
  7721.0130       0.76273116       0.96273114       0.76273114       0.76273114       0.18424732      -0.75850134E-01
  7721.1330       0.78705048       0.98705046       0.78705046       0.78705046       0.20040014       0.47908487E-01
  7721.2460       0.80942439        1.0094244       0.80942437       0.80942437       0.19541000       0.69238417E-01
  7721.3790       0.83512134        1.0351213       0.83512131       0.83512131       0.21743279       0.26486853
  7721.5000       0.86465232        1.0646523       0.86458969       0.86458969       0.26268660       0.86661318E-01
  7721.6120       0.89632731        2.2400311       0.89644006        2.0401439       0.23762488      -0.19627877
  7721.7440       0.92263279        2.2229249       0.92295223        2.0232444       0.21479458       0.36417340E-01
  7721.8620       0.95002596        2.2077665       0.95053017        2.0082708       0.24672921      -0.74842517E-01
  7721.9740       0.97938051        2.1934951       0.98006010        1.9941747       0.19758080      -0.41262069
  7722.1040       0.99784052        2.1770714       0.99872367        1.9779545       0.14687500      -0.17336239E-01
  7722.2260        1.0163930        2.1617958        1.0174672        1.9628700       0.19321207       0.23239665
  7722.3580        1.0469164        2.1454174        1.0481973        1.9466983       0.20590375      -0.49778771E-01
  7722.4790        1.0684867        2.1305395        1.0699570        1.9320099       0.18061804      -0.27741267
  7722.5930        1.0893616        2.1166406        1.0910105        1.9182895       0.14071178      -0.36348784
  7722.7240        1.1029610        2.1008102        1.1048150        1.9026642       0.91563522E-01  -0.12230089
  7722.8460        1.1125272        2.0862024        1.1145722        1.8882475       0.10976965       0.29269364
  7722.9580        1.1286471        2.0729062        1.1308675        1.8751266       0.16005383       0.20973564
  7723.0510        1.1453382        2.0619483        1.1477043        1.8643144       0.15276546      -0.18530615
  7723.2130        1.1676023        2.0430390        1.1702220        1.8456588       0.11280077      -0.14042987
  7723.4060        1.1853825        2.0208058        1.1883044        1.8237278       0.10291286       0.50915133E-02
  7723.6030        1.2077383        1.9984399        1.2109687        1.8016703       0.11478646      -0.18370943E-01
  7723.8000        1.2306084        1.9764032        1.2341472        1.7799421       0.95674704E-01  -0.14651730
  7724.0000        1.2457212        1.9543651        1.2495732        1.7582172       0.56619088E-01  -0.17868592
  7724.1980        1.2531428        1.9328768        1.2573048        1.7370389       0.24557707E-01  -0.12053416
  7724.3960        1.2554461        1.9117137        1.2599182        1.7161859       0.88875610E-02  -0.45143341E-01
  7724.5920        1.2566445        1.8910825        1.2614235        1.6958616       0.67712306E-02  -0.40110861E-01
  7724.7890        1.2581072        1.8706625        1.2631947        1.6757501      -0.68760073E-02  -0.91578788E-01
  7725.0080        1.2537840        1.8483317        1.2592145        1.6537622      -0.31325545E-01  -0.34091846E-01
  7725.7230        1.2288491        1.7780954        1.2353991        1.5846455      -0.38717792E-01  -0.69663140E-02
  7726.5070        1.1957461        1.7056764        1.2035237        1.5134541      -0.41768050E-01   0.13709406E-02
  7727.3020        1.1628973        1.6370018        1.1719199        1.4460244      -0.36553077E-01   0.37591514E-02
  7728.0660        1.1387598        1.5753787        1.1489787        1.3855976      -0.35907533E-01   0.51834000E-02
  7728.8300        1.1080306        1.5179029        1.1194458        1.3293181      -0.28632841E-01   0.17011938E-01
  7729.5930        1.0950375        1.4645043        1.1076474        1.2771143      -0.99303040E-02   0.15706952E-01
  7730.3530        1.0929068        1.4151555        1.1067068        1.2289556      -0.47111535E-02   0.42820727E-02
  7731.1470        1.0877163        1.3675454        1.1027596        1.1825887      -0.32759630E-02   0.41663839E-02
  7731.9100        1.0878061        1.3254523        1.1040442        1.1416904       0.17759062E-02  -0.35193576E-02
  7732.6790        1.0904370        1.2865152        1.1078792        1.1039575      -0.86676188E-02  -0.69143435E-02
  7733.4410        1.0745360        1.2512480        1.0931714        1.0698834      -0.88099536E-02   0.56935509E-02
  7734.2140        1.0769138        1.2187034        1.0967596        1.0385492       0.71981906E-04  -0.20081061E-02
  7734.9760        1.0746465        1.1896695        1.0956855        1.0107085      -0.11892396E-01  -0.98385845E-02
  7735.7750        1.0583497        1.1623260        1.0806399       0.98461616      -0.15286048E-01   0.76923025E-02
  7736.5390        1.0507544        1.1390058        1.0742409       0.96249230       0.13067234E-03   0.68482015E-02
  7737.3090        1.0585502        1.1181558        1.0832424       0.94284800      -0.47809074E-02  -0.13537048E-01
  7738.0780        1.0433966        1.0998513        1.0692929       0.92574768      -0.20702844E-01  -0.81305621E-02
  7738.8440        1.0267713        1.0839811        1.0538671       0.91107692      -0.17261320E-01   0.60279586E-02
  7739.6160        1.0168487        1.0702319        1.0451533       0.89853655      -0.11431843E-01   0.12560526E-02
  7740.3880        1.0091205        1.0585952        1.0386340       0.88810876      -0.15321975E-01  -0.60336790E-02
  7741.1610       0.99317620        1.0489180        1.0239001       0.87964198      -0.20753877E-01  -0.56910738E-02
  7741.9520       0.97666148        1.0409124        1.0086240       0.87287491      -0.24222814E-01  -0.32111827E-03
  7744.4520       0.91345892        1.0265072       0.94933612       0.86238438      -0.21810678E-01   0.16116442E-02
  7746.9690       0.86723731        1.0249611       0.90705581       0.86477961      -0.16137195E-01   0.19086774E-02
  7749.4530       0.83275680        1.0313942       0.87646492       0.87510235      -0.12265382E-01   0.12398099E-02
  7751.9350       0.80632742        1.0409824       0.85392203       0.88857704      -0.99802994E-02   0.10262184E-02
  7754.4550       0.78283535        1.0503119       0.83437595       0.90185254      -0.71322377E-02   0.18366241E-02
  7756.9490       0.77056638        1.0586624       0.82601226       0.91410831      -0.77146627E-03   0.24930040E-02
  7759.4300       0.77899730        1.0661235       0.83832810       0.92545430       0.52704572E-02   0.16889089E-02
  7761.9470       0.79690813        1.0728566       0.86018022       0.93612872       0.76697004E-02   0.11317441E-02
  7764.4680       0.81763725        1.0787824       0.88485690       0.94600212       0.10972184E-01   0.59449315E-03
  7766.9650       0.85196655        1.0838709       0.92309617       0.95500052       0.10652867E-01  -0.39771251E-04
  7769.4620       0.87083767        1.0882078       0.94587727       0.96324742       0.10773566E-01   0.45446634E-04
  7771.9870       0.90607140        1.0918554       0.98506481       0.97084884       0.10881100E-01  -0.11942352E-02
  7774.4880       0.92552608        1.0947628        1.0084357       0.97767250       0.47713402E-02  -0.18242255E-02
  7776.9970       0.92997581        1.0970001        1.0168142       0.98383851       0.17417304E-02  -0.59422810E-03
  7780.5620       0.93610535        1.0990595        1.0285261       0.99148029       0.11619987E-02  -0.79895633E-03
  7784.1490       0.93828642        1.0998736        1.0363239       0.99791117      -0.39724052E-02  -0.61132638E-03
  7787.6930       0.90777813        1.0995130        1.0113651        1.0031000      -0.31973697E-02   0.67636141E-03
  7791.2820       0.91547959        1.0980432        1.0246865        1.0072501       0.85208073E-03   0.22580145E-03
  7794.8620       0.91388669        1.0955453        1.0286994        1.0103580      -0.15785991E-02  -0.61891046E-03
  7798.4360       0.90418629        1.0920992        1.0245954        1.0125083      -0.35756047E-02  -0.25991861E-03
  7802.0150       0.88831039        1.0877703        1.0143237        1.0137837      -0.34377969E-02   0.44253650E-04
  7805.6140       0.87950978        1.0826077        1.0111587        1.0142566      -0.32579520E-02   0.13515238E-03
  7809.2040       0.86488898        1.0767257        1.0021594        1.0139961      -0.24661865E-02   0.45039304E-03
  7812.8090       0.86176557        1.0701600        1.0046809        1.0130754      -0.17374070E-04  -0.36325468E-04
  7816.3810       0.86476428        1.0630790        1.0132729        1.0115877      -0.27268943E-02  -0.49706991E-03
  7819.9940       0.84217284        1.0554111       0.99633895        1.0095773      -0.35888213E-02   0.47347131E-04
  7823.6050       0.83883864        1.0473169       0.99865911        1.0071374      -0.23848587E-02  -0.11008763E-03
  7827.2230       0.82493269        1.0388531       0.99041848        1.0043389      -0.43846448E-02   0.42133276E-04
  7830.8140       0.80722973        1.0301794       0.97833856        1.0012882      -0.20811199E-02   0.73493406E-03
  7834.4380       0.80991741        1.0212280       0.98670095       0.99801151       0.91790441E-03  -0.73923504E-04
  7838.0600       0.81388087        1.0121610       0.99633598       0.99461615      -0.26167696E-02  -0.36695886E-03
  7841.6900       0.79094060        1.0030320       0.97907982       0.99117119      -0.17432813E-02   0.75066674E-03
  7845.3200       0.80122465       0.99393962       0.99504797       0.98776297       0.28330709E-02   0.12607031E-02
