# XDI/1.0 Athena/0.9.26
# Element.edge:                  K
# Element.symbol:                Co
# Column.1:                      energy eV
# Column.2:                      norm
# Column.3:                      nbkg
# Column.4:                      flat
# Column.5:                      fbkg
# Column.6:                      nder
# Column.7:                      nsec
# Athena.e0:                     7721.54
# Athena.eshift:                 0
# Athena.rbkg:                   1.0
# Athena.importance:             1
# Athena.standard:               None
# Athena.bkg_kweight:            3
# Athena.edge_step:              1.1945785
# Athena.fixed_step:             no
# Athena.pre_edge_range:         -82.964 -19.904
# Athena.pre_edge_line:          0.227752 + 0.000185002 * E
# Athena.normalization_range:    45 125.256
# Athena.post_edge_polynomial:   15.675399 - 0.00166088 * E + 0 * E^2 + 0 * E^3
# Athena.spline_range_energy:    0.000 125.180
# Athena.clamps:                 0 24
# Athena.spline_range_k:         0.000 5.732
# Athena.kweight:                2
# Athena.window:                 hanning
# Athena.phase_correction:       no
# Athena.k_range:                .4 5.35
# Athena.dk:                     .5
# Athena.r_range:                .4 5.1
# Athena.dr:                     .5
# Athena.window:                 hanning
# Athena.plot_multiplier:        1
# Athena.y_offset:               0.2
# ///
#------------------------
#   e         norm        nbkg        flat        fbkg        nder        nsec
  7600.0670      -0.21406134      -0.14061339E-01  -0.21406134      -0.21406134       0.12052393E-01  -0.49765586E-03
  7610.6410      -0.86619335E-01   0.11338066      -0.86619337E-01  -0.86619337E-01   0.67901795E-02  -0.37009686E-03
  7624.5560      -0.47776629E-01   0.15222337      -0.47776630E-01  -0.47776630E-01   0.29890906E-02  -0.20611171E-03
  7637.2000      -0.72320769E-02   0.19276792      -0.72320771E-02  -0.72320771E-02   0.13160585E-02  -0.13394278E-03
  7649.6990      -0.14686969E-01   0.18531303      -0.14686969E-01  -0.14686969E-01  -0.37863279E-03   0.93784970E-04
  7662.1990      -0.16697518E-01   0.18330248      -0.16697518E-01  -0.16697518E-01   0.36605890E-02   0.24189875E-04
  7674.7330       0.76952216E-01   0.27695222       0.76952218E-01   0.76952218E-01   0.22693654E-03  -0.28020641E-03
  7687.3310      -0.10994149E-01   0.18900585      -0.10994149E-01  -0.10994149E-01  -0.33815586E-02   0.72951374E-05
  7700.0100      -0.85234401E-02   0.19147656      -0.85234402E-02  -0.85234402E-02   0.41133572E-03   0.93401476E-03
  7700.3880      -0.56233384E-02   0.19437666      -0.56233385E-02  -0.56233385E-02   0.88138721E-02   0.47577069E-02
  7700.7190      -0.22744047E-02   0.19772560      -0.22744048E-02  -0.22744048E-02   0.37845499E-02  -0.21008396E-01
  7701.0710      -0.30384908E-02   0.19696151      -0.30384909E-02  -0.30384909E-02  -0.55348622E-02  -0.26218972E-02
  7701.4340      -0.62318312E-02   0.19376817      -0.62318313E-02  -0.62318313E-02   0.19098934E-02   0.17256363E-01
  7701.7980      -0.16499983E-02   0.19835000      -0.16499983E-02  -0.16499983E-02   0.70105139E-02  -0.76879243E-02
  7702.1550      -0.11772507E-02   0.19882275      -0.11772507E-02  -0.11772507E-02  -0.36331000E-02  -0.18986952E-01
  7702.5150      -0.42549310E-02   0.19574507      -0.42549311E-02  -0.42549311E-02  -0.66031307E-02  -0.40167660E-03
  7702.8790      -0.59579173E-02   0.19404208      -0.59579174E-02  -0.59579174E-02  -0.39239139E-02   0.59642891E-02
  7703.2420      -0.71076164E-02   0.19289238      -0.71076165E-02  -0.71076165E-02  -0.22670925E-02   0.12732220E-01
  7703.6000      -0.75924910E-02   0.19240751      -0.75924912E-02  -0.75924912E-02   0.52560171E-02   0.16439262E-01
  7703.9610      -0.33285401E-02   0.19667146      -0.33285402E-02  -0.33285402E-02   0.95527368E-02  -0.32264066E-02
  7704.3250      -0.66675681E-03   0.19933324      -0.66675682E-03  -0.66675682E-03   0.29168723E-02  -0.16663841E-01
  7704.6870      -0.12108908E-02   0.19878911      -0.12108909E-02  -0.12108909E-02  -0.25452120E-02  -0.10437653E-01
  7705.0200      -0.24356791E-02   0.19756432      -0.24356792E-02  -0.24356792E-02  -0.43372967E-02   0.34336435E-02
  7705.3810      -0.42209748E-02   0.19577903      -0.42209748E-02  -0.42209748E-02  -0.16226336E-03   0.28743649E-01
  7705.7490      -0.25539691E-02   0.19744603      -0.25539692E-02  -0.25539692E-02   0.16616823E-01   0.32334481E-01
  7706.1120       0.79259231E-02   0.20792592       0.79259233E-02   0.79259233E-02   0.23474243E-01   0.16475218E-01
  7706.4710       0.14394434E-01   0.21439443       0.14394434E-01   0.14394434E-01   0.28511931E-01   0.14358733E-01
  7706.8310       0.28426002E-01   0.22842600       0.28426002E-01   0.28426002E-01   0.33798172E-01  -0.24961467E-02
  7707.1960       0.38898109E-01   0.23889811       0.38898109E-01   0.38898109E-01   0.26702225E-01  -0.23842526E-01
  7707.5570       0.47811817E-01   0.24781182       0.47811817E-01   0.47811817E-01   0.16488498E-01  -0.30215122E-01
  7707.9150       0.50753339E-01   0.25075334       0.50753340E-01   0.50753340E-01   0.49775519E-02  -0.16153619E-01
  7708.2800       0.51410587E-01   0.25141059       0.51410588E-01   0.51410588E-01   0.48094318E-02  -0.58264203E-02
  7708.6460       0.54269033E-01   0.25426903       0.54269034E-01   0.54269034E-01   0.71843860E-03  -0.17720076E-01
  7708.9820       0.51914930E-01   0.25191493       0.51914931E-01   0.51914931E-01  -0.76300612E-02   0.95486259E-03
  7709.2900       0.49355274E-01   0.24935527       0.49355275E-01   0.49355275E-01   0.13333701E-02   0.23285906E-01
  7709.5960       0.52733620E-01   0.25273362       0.52733621E-01   0.52733621E-01   0.66674852E-02  -0.12901068E-01
  7709.9030       0.53442442E-01   0.25344244       0.53442443E-01   0.53442443E-01  -0.65749848E-02  -0.31095873E-01
  7710.2110       0.48690004E-01   0.24869000       0.48690005E-01   0.48690005E-01  -0.12456477E-01  -0.13655700E-02
  7710.5140       0.45831535E-01   0.24583154       0.45831536E-01   0.45831536E-01  -0.74093481E-02   0.13602436E-01
  7710.8230       0.44155483E-01   0.24415548       0.44155484E-01   0.44155484E-01  -0.41317862E-02   0.23171012E-01
  7711.1080       0.43377254E-01   0.24337725       0.43377255E-01   0.43377255E-01   0.63542328E-02   0.13298944E-01
  7711.4160       0.47923543E-01   0.24792354       0.47923544E-01   0.47923544E-01   0.37544875E-02  -0.17834065E-01
  7711.7250       0.45693773E-01   0.24569377       0.45693774E-01   0.45693774E-01  -0.46493856E-02  -0.58595417E-02
  7712.0290       0.45073470E-01   0.24507347       0.45073471E-01   0.45073471E-01   0.16258845E-03  -0.38292383E-02
  7712.3330       0.45792627E-01   0.24579263       0.45792627E-01   0.45792627E-01  -0.69775624E-02   0.30016705E-02
  7712.6440       0.40782269E-01   0.24078227       0.40782270E-01   0.40782270E-01   0.20086158E-02   0.38096525E-01
  7712.9530       0.47037968E-01   0.24703797       0.47037969E-01   0.47037969E-01   0.16642283E-01   0.39507446E-01
  7713.2350       0.50617858E-01   0.25061786       0.50617859E-01   0.50617859E-01   0.25357517E-01   0.48335662E-01
  7713.5380       0.61872116E-01   0.26187212       0.61872117E-01   0.61872117E-01   0.44918645E-01   0.57004201E-01
  7713.8530       0.78377581E-01   0.27837758       0.78377582E-01   0.78377582E-01   0.60586113E-01   0.49551733E-01
  7714.1610       0.99617264E-01   0.29961727       0.99617266E-01   0.99617266E-01   0.75789375E-01   0.12022133E-01
  7714.4700       0.12513963       0.32513963       0.12513963       0.12513963       0.68003769E-01  -0.49599958E-01
  7714.7770       0.14150759       0.34150759       0.14150759       0.14150759       0.45235801E-01  -0.42450783E-01
  7715.0770       0.15259776       0.35259776       0.15259776       0.15259776       0.42236144E-01   0.86976622E-02
  7715.3860       0.16722940       0.36722940       0.16722940       0.16722940       0.50532677E-01  -0.16993033E-02
  7715.6700       0.18256363       0.38256364       0.18256364       0.18256364       0.41228457E-01  -0.53623010E-01
  7715.9720       0.19138927       0.39138928       0.19138928       0.19138928       0.19109593E-01  -0.38404109E-01
  7716.1370       0.19148781       0.39148782       0.19148782       0.19148782       0.23293738E-01   0.52690297E-01
  7716.2550       0.19798140       0.39798140       0.19798140       0.19798140       0.34020948E-01   0.50748206E-01
  7716.3670       0.19931263       0.39931264       0.19931264       0.19931264       0.34965825E-01   0.17847728
  7716.4990       0.20651306       0.40651307       0.20651307       0.20651307       0.77569405E-01   0.15546226
  7716.6200       0.21893769       0.41893770       0.21893770       0.21893770       0.74297776E-01  -0.90528952E-01
  7716.7330       0.22389874       0.42389875       0.22389875       0.22389875       0.56385630E-01  -0.17251620
  7716.8670       0.23286494       0.43286495       0.23286495       0.23286495       0.31686274E-01  -0.92082591E-01
  7716.9880       0.23197874       0.43197875       0.23197875       0.23197875       0.32904569E-01   0.10439334
  7717.1010       0.24056461       0.44056462       0.24056462       0.24056462       0.56114316E-01   0.13515815E-01
  7717.2330       0.24572675       0.44572675       0.24572675       0.24572675       0.36215944E-01   0.65235676E-01
  7717.3500       0.24958238       0.44958239       0.24958239       0.24958239       0.72358000E-01   0.12644424
  7717.4620       0.26229673       0.46229674       0.26229674       0.26229674       0.65171675E-01  -0.12468778
  7717.5920       0.26535393       0.46535393       0.26535393       0.26535393       0.42183556E-01   0.64124635E-01
  7717.7100       0.27275825       0.47275826       0.27275826       0.27275826       0.81074585E-01   0.27090521
  7717.8420       0.28562257       0.48562258       0.28562258       0.28562258       0.10990986       0.10665786
  7717.9600       0.30023572       0.50023572       0.30023572       0.30023572       0.10773905      -0.11325722
  7718.0740       0.31061803       0.51061804       0.31061804       0.31061804       0.83634184E-01  -0.86200623E-01
  7718.2060       0.32080973       0.52080973       0.32080973       0.32080973       0.86533698E-01  -0.40954193E-02
  7718.3280       0.33259759       0.53259760       0.33259760       0.33259760       0.82593947E-01  -0.24819082E-01
  7718.4410       0.34021930       0.54021931       0.34021931       0.34021931       0.80701214E-01   0.90272696E-02
  7718.5730       0.35236939       0.55236940       0.35236940       0.35236940       0.84805628E-01   0.12988541
  7718.6930       0.36159032       0.56159033       0.36159033       0.36159033       0.11343234       0.20028370
  7718.8050       0.37868569       0.57868570       0.37868570       0.37868570       0.13127145      -0.82549702E-01
  7718.9360       0.39348928       0.59348929       0.39348929       0.39348929       0.93372760E-01  -0.46102445E-01
  7719.0560       0.40212225       0.60212226       0.40212226       0.40212226       0.11969973       0.16123259
  7719.1680       0.42125962       0.62125963       0.42125963       0.42125963       0.13077872       0.54969909E-01
  7719.2990       0.43390148       0.63390149       0.43390149       0.43390149       0.13305742       0.18746760
  7719.4200       0.45479009       0.65479010       0.45479010       0.45479010       0.17802056       0.12007182
  7719.5350       0.47591433       0.67591434       0.47591434       0.47591434       0.16139437      -0.14806559
  7719.6660       0.49449311       0.69449312       0.49449312       0.49449312       0.14159642      -0.11603716
  7719.7880       0.51173823       0.71173824       0.51173824       0.51173824       0.13203697       0.41975539E-01
  7719.9010       0.52552180       0.72552181       0.52552181       0.52552181       0.15146067       0.29529824
  7720.0340       0.54899755       0.74899756       0.54899756       0.54899756       0.20468034       0.23732994
  7720.1540       0.57730592       0.77730593       0.57730593       0.57730593       0.21150515      -0.21791000E-01
  7720.2670       0.59827825       0.79827826       0.59827826       0.59827826       0.19960304      -0.11147083
  7720.3970       0.62580946       0.82580947       0.62580947       0.62580947       0.18441773      -0.15415242
  7720.5160       0.64419827       0.84419828       0.64419828       0.64419828       0.16121908      -0.68193183E-01
  7720.6460       0.66595301       0.86595302       0.66595302       0.66595302       0.16743763       0.13922028
  7720.7660       0.68605768       0.88605769       0.68605769       0.68605769       0.19602415       0.33696335
  7720.8790       0.71162664       0.91162665       0.71162665       0.71162665       0.24595009       0.98660855E-01
  7721.0130       0.74680735       0.94680736       0.74680736       0.74680736       0.22039338      -0.34634266
  7721.1330       0.76760656       0.96760657       0.76760657       0.76760657       0.15797906      -0.14583654
  7721.2460       0.78361647       0.98361648       0.78361648       0.78361648       0.18641347       0.33498076
  7721.3790       0.81346427        1.0134643       0.81346429       0.81346429       0.24038432       0.31370434
  7721.5000       0.84467409        1.0446741       0.84461228       0.84461228       0.26609437       0.21187469E-01
  7721.6120       0.87546426        2.2670200       0.87557551        2.0671313       0.24532100      -0.17931251
  7721.7440       0.90453241        2.2495247       0.90484763        2.0498400       0.22234212       0.48509056E-01
  7721.8620       0.93104979        2.2340216       0.93154735        2.0345191       0.25744827      -0.92078762E-01
  7721.9740       0.96374551        2.2194255       0.96441614        2.0200961       0.20116400      -0.40689507
  7722.1040       0.97973148        2.2026281       0.98060298        2.0034996       0.15897966       0.79869597E-01
  7722.2260        1.0038084        2.1870050        1.0048684        1.9880650       0.22129114       0.24440495
  7722.3580        1.0359394        2.1702539        1.0372034        1.9715179       0.22105852      -0.18653306
  7722.4790        1.0597362        2.1550375        1.0611872        1.9564884       0.17409828      -0.26970244
  7722.5930        1.0768525        2.1408223        1.0784796        1.9424494       0.15767844      -0.22049043
  7722.7240        1.0983674        2.1246315        1.1001970        1.9264611       0.12007812      -0.17333928
  7722.8460        1.1072323        2.1096912        1.1092503        1.9117093       0.11382361       0.20067440
  7722.9580        1.1250021        2.0960924        1.1271933        1.8982835       0.16703593       0.27310664
  7723.0510        1.1414747        2.0848850        1.1438095        1.8872198       0.16981047      -0.12819336
  7723.2130        1.1683038        2.0655452        1.1708890        1.8681303       0.13434662      -0.13211831
  7723.4060        1.1891677        2.0428057        1.1920511        1.8456890       0.12290847      -0.12315996E-01
  7723.6030        1.2162381        2.0199304        1.2194259        1.8231182       0.12954338      -0.53939676E-01
  7723.8000        1.2402078        1.9973917        1.2437000        1.8008838       0.10165624      -0.16192146
  7724.0000        1.2565956        1.9748515        1.2603969        1.7786527       0.65260563E-01  -0.21237106
  7724.1980        1.2661815        1.9528735        1.2702887        1.7569807       0.17132557E-01  -0.15111108
  7724.3960        1.2633801        1.9312282        1.2677933        1.7356413       0.54205748E-02  -0.81010806E-03
  7724.5920        1.2683172        1.9101267        1.2730332        1.7148427       0.16813374E-01  -0.41753753E-01
  7724.7890        1.2699878        1.8892412        1.2750082        1.6942616      -0.10988650E-01  -0.12038782
  7725.0080        1.2637459        1.8664012        1.2691047        1.6717600      -0.33267960E-01  -0.31626716E-01
  7725.7230        1.2389155        1.7945626        1.2453792        1.6010262      -0.40528003E-01  -0.83124820E-02
  7726.5070        1.2029945        1.7204903        1.2106696        1.5281654      -0.45728371E-01   0.94943134E-03
  7727.3020        1.1667104        1.6502467        1.1756140        1.4591502      -0.39028851E-01   0.50734676E-02
  7728.0660        1.1421485        1.5872144        1.1522326        1.3972985      -0.37818835E-01   0.55648584E-02
  7728.8300        1.1089232        1.5284230        1.1201879        1.3396876      -0.30525747E-01   0.18764823E-01
  7729.5930        1.0955357        1.4738009        1.1079793        1.2862445      -0.91649500E-02   0.18503759E-01
  7730.3530        1.0949650        1.4233201        1.1085830        1.2369381      -0.23445228E-02   0.45634239E-02
  7731.1470        1.0918923        1.3746165        1.1067372        1.1894614      -0.20733893E-02   0.29270997E-02
  7731.9100        1.0917367        1.3315553        1.1077607        1.1475792       0.22129715E-02  -0.32207324E-02
  7732.6790        1.0952825        1.2917214        1.1124947        1.1089335      -0.70075513E-02  -0.76076661E-02
  7733.4410        1.0810082        1.2556405        1.0993978        1.0740301      -0.94343654E-02   0.41143858E-02
  7734.2140        1.0808008        1.2223436        1.1003849        1.0419276      -0.69196910E-03  -0.13465470E-02
  7734.9760        1.0799460        1.1926371        1.1007076        1.0133987      -0.11501315E-01  -0.99083247E-02
  7735.7750        1.0628472        1.1646587        1.0848434       0.98665487      -0.16158864E-01   0.64657738E-02
  7736.5390        1.0546897        1.1407955        1.0778664       0.96397221      -0.13953106E-02   0.67368913E-02
  7737.3090        1.0607068        1.1194584        1.0850734       0.94382494      -0.58244726E-02  -0.12712651E-01
  7738.0780        1.0457258        1.1007247        1.0712807       0.92627951      -0.20960080E-01  -0.75930668E-02
  7738.8440        1.0285331        1.0844807        1.0552716       0.91121913      -0.17479830E-01   0.70608855E-02
  7739.6160        1.0188419        1.0704058        1.0467732       0.89833718      -0.10100438E-01   0.15356667E-02
  7740.3880        1.0129380        1.0584917        1.0420623       0.88761597      -0.15108761E-01  -0.73289613E-02
  7741.1610       0.99549883        1.0485818        1.0258176       0.87890046      -0.21423683E-01  -0.59360922E-02
  7741.9520       0.97943139        1.0403813        1.0109724       0.87192223      -0.24392809E-01  -0.30544455E-04
  7744.4520       0.91522210        1.0256103       0.95062613       0.86101437      -0.21524205E-01   0.17229741E-02
  7746.9690       0.87144445        1.0239956       0.91073780       0.86328895      -0.15748648E-01   0.16644122E-02
  7749.4530       0.83646311        1.0305487       0.87959477       0.87368032      -0.13200480E-01   0.93113490E-03
  7751.9350       0.80589087        1.0403371       0.85285777       0.88730396      -0.11124632E-01   0.10810923E-02
  7754.4550       0.78081770        1.0498707       0.83167854       0.90073157      -0.77928562E-02   0.20219398E-02
  7756.9490       0.76681749        1.0584132       0.82153211       0.91312781      -0.98662606E-03   0.26655747E-02
  7759.4300       0.77590923        1.0660557       0.83445754       0.92460399       0.54683778E-02   0.17546009E-02
  7761.9470       0.79414844        1.0729635       0.85658606       0.93540113       0.77828694E-02   0.11563837E-02
  7764.4680       0.81511933        1.0790553       0.88145244       0.94538837       0.11294239E-01   0.62083089E-03
  7766.9650       0.85082293        1.0842994       0.92101446       0.95449095       0.10898199E-01  -0.85108423E-04
  7769.4620       0.86954493        1.0887840       0.94359487       0.96283388       0.10869207E-01   0.88791242E-04
  7771.9870       0.90540809        1.0925729       0.98335970       0.97052450       0.11344108E-01  -0.11095647E-02
  7774.4880       0.92656042        1.0956128        1.0083766       0.97742903       0.52925353E-02  -0.18350019E-02
  7776.9970       0.93192369        1.0979759        1.0176168       0.98366908       0.21507491E-02  -0.69951515E-03
  7780.5620       0.93962407        1.1002028        1.0308259       0.99140459       0.10436803E-02  -0.86142343E-03
  7784.1490       0.93938810        1.1011727        1.0361326       0.99791719      -0.40101512E-02  -0.57794440E-03
  7787.6930       0.91102768        1.1009546        1.0132485        1.0031754      -0.30776413E-02   0.64249732E-03
  7791.2820       0.91743528        1.0996188        1.0252019        1.0073854       0.57278218E-03   0.21810855E-03
  7794.8620       0.91513396        1.0972453        1.0284324        1.0105437      -0.15140211E-02  -0.54521980E-03
  7798.4360       0.90660397        1.0939152        1.0254251        1.0127362      -0.33277203E-02  -0.28353702E-03
  7802.0150       0.89133078        1.0896953        1.0156822        1.0140467      -0.35421614E-02   0.36061918E-05
  7805.6140       0.88117834        1.0846363        1.0110910        1.0145490      -0.33018350E-02   0.17428990E-03
  7809.2040       0.86759388        1.0788527        1.0030539        1.0143126      -0.22891913E-02   0.44933147E-03
  7812.8090       0.86470761        1.0723820        1.0057381        1.0134125      -0.68895109E-04  -0.75712928E-04
  7816.3810       0.86709942        1.0653924        1.0136494        1.0119424      -0.28325829E-02  -0.48945216E-03
  7819.9940       0.84435550        1.0578154       0.99648839        1.0099482      -0.35856089E-02   0.45926542E-04
  7823.6050       0.84119699        1.0498114       0.99890966        1.0075240      -0.25008096E-02  -0.84743084E-04
  7827.2230       0.82627715        1.0414387       0.98958042        1.0047420      -0.41982166E-02   0.23870624E-04
  7830.8140       0.81093204        1.0328572       0.97978419        1.0017093      -0.23287263E-02   0.68248459E-03
  7834.4380       0.80947539        1.0240017       0.98392741       0.99845369       0.72590969E-03  -0.17011324E-04
  7838.0600       0.81619198        1.0150347       0.99624078       0.99508344      -0.24519903E-02  -0.33153282E-03
  7841.6900       0.79169355        1.0060109       0.97735149       0.99166884      -0.16783663E-02   0.80497749E-03
  7845.3200       0.80400704       0.99703026       0.99527412       0.98829733       0.33921462E-02   0.13968354E-02
