# XDI/1.0 Athena/0.9.26
# Element.edge:                  K
# Element.symbol:                Co
# Column.1:                      energy eV
# Column.2:                      norm
# Column.3:                      nbkg
# Column.4:                      flat
# Column.5:                      fbkg
# Column.6:                      nder
# Column.7:                      nsec
# Athena.e0:                     7721.54
# Athena.eshift:                 0
# Athena.rbkg:                   1.0
# Athena.importance:             1
# Athena.standard:               None
# Athena.bkg_kweight:            3
# Athena.edge_step:              1.1917864
# Athena.fixed_step:             no
# Athena.pre_edge_range:         -82.964 -19.904
# Athena.pre_edge_line:          -0.003078 + 0.000215052 * E
# Athena.normalization_range:    45 125.256
# Athena.post_edge_polynomial:   15.487457 - 0.00163675 * E + 0 * E^2 + 0 * E^3
# Athena.spline_range_energy:    0.000 125.180
# Athena.clamps:                 0 24
# Athena.spline_range_k:         0.000 5.732
# Athena.kweight:                2
# Athena.window:                 hanning
# Athena.phase_correction:       no
# Athena.k_range:                .4 5.35
# Athena.dk:                     .5
# Athena.r_range:                .4 5.1
# Athena.dr:                     .5
# Athena.window:                 hanning
# Athena.plot_multiplier:        1
# Athena.y_offset:               0.2
# ///
#------------------------
#   e         norm        nbkg        flat        fbkg        nder        nsec
  7600.0670      -0.21352775      -0.13527751E-01  -0.21352775      -0.21352775       0.12319880E-01  -0.51845776E-03
  7610.6410      -0.83257332E-01   0.11674267      -0.83257334E-01  -0.83257334E-01   0.68377079E-02  -0.38708243E-03
  7624.5560      -0.46079117E-01   0.15392088      -0.46079118E-01  -0.46079118E-01   0.28406187E-02  -0.21299949E-03
  7637.2000      -0.78133408E-02   0.19218666      -0.78133410E-02  -0.78133410E-02   0.11806543E-02  -0.12528205E-03
  7649.6990      -0.16393926E-01   0.18360607      -0.16393926E-01  -0.16393926E-01  -0.30934779E-03   0.10662604E-03
  7662.1990      -0.15546726E-01   0.18445327      -0.15546727E-01  -0.15546727E-01   0.38461988E-02   0.19948743E-04
  7674.7330       0.79891816E-01   0.27989182       0.79891817E-01   0.79891817E-01   0.19004904E-03  -0.29330918E-03
  7687.3310      -0.10770414E-01   0.18922959      -0.10770414E-01  -0.10770414E-01  -0.35252476E-02   0.69914546E-05
  7700.0100      -0.92158684E-02   0.19078413      -0.92158686E-02  -0.92158685E-02   0.36677204E-03   0.95367481E-03
  7700.3880      -0.59814714E-02   0.19401853      -0.59814716E-02  -0.59814715E-02   0.89268843E-02   0.70616817E-02
  7700.7190      -0.28867074E-02   0.19711329      -0.28867074E-02  -0.28867074E-02   0.53735044E-02  -0.19992724E-01
  7701.0710      -0.23113679E-02   0.19768863      -0.23113680E-02  -0.23113680E-02  -0.47281459E-02  -0.82720096E-02
  7701.4340      -0.62673317E-02   0.19373267      -0.62673318E-02  -0.62673318E-02  -0.54098249E-03   0.13515632E-01
  7701.7980      -0.27046622E-02   0.19729534      -0.27046623E-02  -0.27046623E-02   0.50977186E-02  -0.27787540E-02
  7702.1550      -0.25918765E-02   0.19740812      -0.25918766E-02  -0.25918766E-02  -0.25444641E-02  -0.14626379E-01
  7702.5150      -0.45290430E-02   0.19547096      -0.45290431E-02  -0.45290431E-02  -0.53893950E-02   0.18131743E-02
  7702.8790      -0.64937985E-02   0.19350620      -0.64937986E-02  -0.64937986E-02  -0.12317260E-02   0.63513481E-02
  7703.2420      -0.54245078E-02   0.19457549      -0.54245079E-02  -0.54245079E-02  -0.77196489E-03   0.16530952E-02
  7703.6000      -0.70503852E-02   0.19294961      -0.70503853E-02  -0.70503853E-02  -0.39844295E-04   0.10884904E-01
  7703.9610      -0.54531558E-02   0.19454684      -0.54531559E-02  -0.54531559E-02   0.70542810E-02   0.71334927E-02
  7704.3250      -0.19360314E-02   0.19806397      -0.19360315E-02  -0.19360315E-02   0.51319379E-02  -0.98458372E-02
  7704.6870      -0.17273689E-02   0.19827263      -0.17273689E-02  -0.17273689E-02  -0.93796812E-04  -0.12125773E-01
  7705.0200      -0.20012202E-02   0.19799878      -0.20012203E-02  -0.20012203E-02  -0.32954743E-02   0.11247749E-03
  7705.3810      -0.40144281E-02   0.19598557      -0.40144281E-02  -0.40144281E-02  -0.15737432E-04   0.27957425E-01
  7705.7490      -0.20126928E-02   0.19798731      -0.20126929E-02  -0.20126928E-02   0.17085488E-01   0.35655329E-01
  7706.1120       0.84750639E-02   0.20847506       0.84750641E-02   0.84750641E-02   0.26048308E-01   0.19054341E-01
  7706.4710       0.16794186E-01   0.21679419       0.16794186E-01   0.16794186E-01   0.30842723E-01   0.97353041E-02
  7706.8310       0.30650982E-01   0.23065098       0.30650982E-01   0.30650982E-01   0.33047992E-01  -0.69703544E-02
  7707.1960       0.40753980E-01   0.24075398       0.40753981E-01   0.40753981E-01   0.25789216E-01  -0.22585471E-01
  7707.5570       0.49373952E-01   0.24937395       0.49373953E-01   0.49373953E-01   0.16650940E-01  -0.30692824E-01
  7707.9150       0.52726005E-01   0.25272601       0.52726007E-01   0.52726007E-01   0.37210751E-02  -0.21706325E-01
  7708.2800       0.52064289E-01   0.25206429       0.52064291E-01   0.52064291E-01   0.95726695E-03  -0.65133390E-02
  7708.6460       0.53425767E-01   0.25342577       0.53425769E-01   0.53425769E-01  -0.10401757E-02  -0.13263618E-01
  7708.9820       0.51334086E-01   0.25133409       0.51334087E-01   0.51334087E-01  -0.83537929E-02   0.22725530E-02
  7709.2900       0.48045925E-01   0.24804593       0.48045926E-01   0.48045926E-01   0.42334840E-03   0.25861652E-01
  7709.5960       0.51594022E-01   0.25159402       0.51594023E-01   0.51594023E-01   0.75252613E-02  -0.53769484E-02
  7709.9030       0.52658910E-01   0.25265891       0.52658911E-01   0.52658911E-01  -0.28727210E-02  -0.33329966E-01
  7710.2110       0.49827299E-01   0.24982730       0.49827300E-01   0.49827300E-01  -0.12972668E-01  -0.94120797E-02
  7710.5140       0.44732610E-01   0.24473261       0.44732611E-01   0.44732611E-01  -0.86235016E-02   0.23524473E-01
  7710.8230       0.44549716E-01   0.24454972       0.44549717E-01   0.44549717E-01   0.14243100E-02   0.33601665E-01
  7711.1080       0.45578650E-01   0.24557865       0.45578651E-01   0.45578651E-01   0.11335887E-01   0.94744247E-02
  7711.4160       0.51271897E-01   0.25127190       0.51271898E-01   0.51271898E-01   0.70426438E-02  -0.20575978E-01
  7711.7250       0.49923961E-01   0.24992396       0.49923962E-01   0.49923963E-01  -0.13594913E-02  -0.13336839E-01
  7712.0290       0.50438529E-01   0.25043853       0.50438530E-01   0.50438530E-01  -0.11328383E-02  -0.41384740E-02
  7712.3330       0.49235196E-01   0.24923520       0.49235197E-01   0.49235197E-01  -0.38756834E-02   0.18152793E-01
  7712.6440       0.48054983E-01   0.24805498       0.48054984E-01   0.48054984E-01   0.10031130E-01   0.32311992E-01
  7712.9530       0.55454496E-01   0.25545450       0.55454497E-01   0.55454497E-01   0.16157752E-01   0.26454787E-01
  7713.2350       0.57604215E-01   0.25760422       0.57604216E-01   0.57604216E-01   0.25665908E-01   0.52308925E-01
  7713.5380       0.70469053E-01   0.27046905       0.70469054E-01   0.70469054E-01   0.46758473E-01   0.57966971E-01
  7713.8530       0.86500951E-01   0.28650095       0.86500953E-01   0.86500953E-01   0.61489497E-01   0.52214071E-01
  7714.1610       0.10877701       0.30877701       0.10877701       0.10877701       0.79287839E-01   0.21268551E-01
  7714.4700       0.13542155       0.33542155       0.13542155       0.13542155       0.74612193E-01  -0.44924536E-01
  7714.7770       0.15473812       0.35473812       0.15473812       0.15473812       0.51614324E-01  -0.63163640E-01
  7715.0770       0.16675144       0.36675145       0.16675145       0.16675145       0.36271863E-01  -0.46092058E-02
  7715.3860       0.17682768       0.37682769       0.17682769       0.17682769       0.48807318E-01   0.24476250E-01
  7715.6700       0.19569418       0.39569419       0.19569419       0.19569419       0.50786279E-01  -0.33797489E-01
  7715.9720       0.20658844       0.40658845       0.20658845       0.20658845       0.29001989E-01  -0.63890790E-01
  7716.1370       0.20923811       0.40923812       0.20923812       0.20923812       0.20949281E-01   0.19246516E-01
  7716.2550       0.21251709       0.41251710       0.21251710       0.21251710       0.34448753E-01   0.13809376
  7716.3670       0.21716132       0.41716133       0.21716133       0.21716133       0.52710846E-01   0.14135889
  7716.4990       0.22537854       0.42537854       0.22537854       0.22537854       0.68940323E-01   0.54837910E-01
  7716.6200       0.23460323       0.43460323       0.23460323       0.23460323       0.66584837E-01  -0.94641043E-01
  7716.7330       0.24095939       0.44095939       0.24095939       0.24095939       0.46794319E-01  -0.58868296E-01
  7716.8670       0.24616142       0.44616143       0.24616143       0.24616143       0.52044368E-01  -0.40061080E-01
  7716.9880       0.25423070       0.45423071       0.25423071       0.25423071       0.36578744E-01  -0.10119049
  7717.1010       0.25472085       0.45472085       0.25472085       0.25472085       0.28365794E-01   0.14448736
  7717.2330       0.26118032       0.46118033       0.26118033       0.26118033       0.71978147E-01   0.32195040
  7717.3500       0.27264341       0.47264341       0.27264341       0.27264341       0.10853144      -0.86957878E-01
  7717.4620       0.28603402       0.48603403       0.28603403       0.28603403       0.52064793E-01  -0.27000485
  7717.5920       0.28524309       0.48524309       0.28524309       0.28524309       0.43190270E-01   0.17483754
  7717.7100       0.29674521       0.49674522       0.29674522       0.29674522       0.95424503E-01   0.16276947
  7717.8420       0.30909921       0.50909922       0.30909922       0.30909922       0.83882637E-01  -0.78398356E-02
  7717.9600       0.31771587       0.51771588       0.31771588       0.31771588       0.93464545E-01   0.20564845
  7718.0740       0.33078299       0.53078299       0.33078299       0.33078299       0.13159308       0.47088460E-01
  7718.2060       0.35008777       0.55008777       0.35008777       0.35008777       0.10504831      -0.29756424
  7718.3280       0.35746526       0.55746527       0.35746527       0.35746527       0.56011759E-01  -0.49814376E-01
  7718.4410       0.36325053       0.56325054       0.36325054       0.36325054       0.93341927E-01   0.24195677
  7718.5730       0.38033403       0.58033404       0.38033404       0.38033404       0.11529117      -0.73134591E-02
  7718.6930       0.39230390       0.59230391       0.39230391       0.39230391       0.91498935E-01  -0.10095504
  7718.8050       0.40156178       0.60156179       0.40156179       0.40156179       0.91869598E-01   0.19243976
  7718.9360       0.41462822       0.61462823       0.41462823       0.41462823       0.13826180       0.34355140
  7719.0560       0.43626549       0.63626550       0.43626550       0.43626550       0.17810100      -0.43764283E-01
  7719.1680       0.45594765       0.65594766       0.45594766       0.45594766       0.12810848      -0.28212171
  7719.2990       0.46739585       0.66739587       0.46739587       0.46739587       0.10954542       0.72380663E-01
  7719.4200       0.48355309       0.68355311       0.48355311       0.48355311       0.14634841       0.14692032
  7719.5350       0.50193408       0.70193409       0.50193409       0.50193409       0.14421862      -0.12386466E-01
  7719.6660       0.51903087       0.71903089       0.51903089       0.51903089       0.14330134       0.87120025E-01
  7719.7880       0.53818932       0.73818933       0.53818933       0.53818933       0.16625999       0.21176888
  7719.9010       0.55810197       0.75810198       0.55810198       0.55810198       0.19306703       0.61712043E-01
  7720.0340       0.58568381       0.78568382       0.58568382       0.58568382       0.18144115       0.97030722E-01
  7720.1540       0.60400658       0.80400660       0.60400660       0.60400660       0.21761580       0.58084052E-01
  7720.2670       0.63638829       0.83638830       0.63638830       0.63638830       0.19497473      -0.31535276
  7720.3970       0.65138544       0.85138546       0.65138546       0.65138546       0.14098508      -0.15373082
  7720.5160       0.67149357       0.87149359       0.67149359       0.67149359       0.15669576       0.18603143
  7720.6460       0.69040269       0.89040270       0.69040270       0.69040270       0.18730691       0.31013877
  7720.7660       0.71832030       0.91832032       0.71832032       0.71832032       0.23423045       0.95430204E-01
  7720.8790       0.74497838       0.94497840       0.74497840       0.74497840       0.20954214      -0.12011644
  7721.0130       0.77007721       0.97007723       0.77007723       0.77007723       0.20456169      -0.70516575E-01
  7721.1330       0.79693705       0.99693707       0.79693707       0.79693707       0.19163093      -0.26089556E-01
  7721.2460       0.81472722        1.0147272       0.81472724       0.81472724       0.19848282       0.14933623
  7721.3790       0.84576383        1.0457638       0.84576384       0.84576384       0.22836765       0.19997963
  7721.5000       0.87273260        1.0727326       0.87267044       0.87267044       0.24927765      -0.43800096E-01
  7721.6120       0.90384552        2.2318817       0.90395739        2.0319936       0.21816222      -0.14043518
  7721.7440       0.92596418        2.2149371       0.92628116        2.0152540       0.21501147       0.17717282
  7721.8620       0.95759838        2.1999218       0.95809871        2.0004221       0.26245543      -0.10985537
  7721.9740       0.98632893        2.1857850       0.98700328        1.9864593       0.18974473      -0.53285691
  7722.1040        1.0035166        2.1695160        1.0043930        1.9703923       0.13350406       0.42368684E-01
  7722.2260        1.0199720        2.1543843        1.0210379        1.9554502       0.20042164       0.26052602
  7722.3580        1.0544237        2.1381601        1.0556947        1.9394310       0.19967766      -0.19637577
  7722.4790        1.0704904        2.1234222        1.0719494        1.9248812       0.15073857      -0.20565083
  7722.5930        1.0898473        2.1096539        1.0914834        1.9112901       0.15134972      -0.18695153
  7722.7240        1.1075711        2.0939722        1.1094108        1.8958119       0.10493545      -0.19548522
  7722.8460        1.1163959        2.0795015        1.1184252        1.8815308       0.10189196       0.16845083
  7722.9580        1.1314138        2.0663300        1.1336171        1.8685333       0.14435294       0.21189289
  7723.0510        1.1459883        2.0554749        1.1483361        1.8578227       0.14533000      -0.12732810
  7723.2130        1.1684730        2.0367427        1.1710725        1.8393422       0.11188427      -0.11560387
  7723.4060        1.1857072        2.0147175        1.1886066        1.8176169       0.10429063      -0.18343331E-02
  7723.6030        1.2091463        1.9925607        1.2123518        1.7957662       0.11116888      -0.43289330E-01
  7723.8000        1.2295077        1.9707296        1.2330193        1.7742412       0.87234631E-01  -0.12258107
  7724.0000        1.2437784        1.9488970        1.2476008        1.7527194       0.62504199E-01  -0.16004215
  7724.1980        1.2543844        1.9276088        1.2585144        1.7317388       0.23537854E-01  -0.15402141
  7724.3960        1.2530994        1.9066425        1.2575371        1.7110802       0.15117210E-02  -0.36132000E-01
  7724.5920        1.2549800        1.8862029        1.2597222        1.6909451       0.93018455E-02  -0.30008694E-01
  7724.7890        1.2567551        1.8659722        1.2618034        1.6710205      -0.10281696E-01  -0.10248823
  7725.0080        1.2507029        1.8438482        1.2560914        1.6492368      -0.33333256E-01  -0.28759207E-01
  7725.7230        1.2256218        1.7742599        1.2321214        1.5807595      -0.37142795E-01  -0.43738011E-02
  7726.5070        1.1950258        1.7025052        1.2027435        1.5102229      -0.39889584E-01   0.93695816E-03
  7727.3020        1.1626361        1.6344561        1.1715892        1.4434091      -0.35663338E-01   0.34808656E-02
  7728.0660        1.1394267        1.5733902        1.1495668        1.3835303      -0.34462915E-01   0.52875271E-02
  7728.8300        1.1099768        1.5164298        1.1213040        1.3277570      -0.27583997E-01   0.15354046E-01
  7729.5930        1.0973059        1.4635058        1.1098187        1.2760185      -0.11017286E-01   0.14551126E-01
  7730.3530        1.0931975        1.4145912        1.1068911        1.2282848      -0.54226323E-02   0.42985816E-02
  7731.1470        1.0888791        1.3673951        1.1038065        1.1823225      -0.43372904E-02   0.36763667E-02
  7731.9100        1.0864443        1.3256634        1.1025572        1.1417763       0.30147077E-03  -0.21639826E-02
  7732.6790        1.0893410        1.2870557        1.1066488        1.1043634      -0.76525118E-02  -0.54307077E-02
  7733.4410        1.0747283        1.2520818        1.0932201        1.0705736      -0.80129428E-02   0.45257767E-02
  7734.2140        1.0770411        1.2198027        1.0967340        1.0394956      -0.70544456E-03  -0.20727800E-02
  7734.9760        1.0736455        1.1910003        1.0945224        1.0118772      -0.11194660E-01  -0.87518219E-02
  7735.7750        1.0595662        1.1638689        1.0816846       0.98598727      -0.14367039E-01   0.74064220E-02
  7736.5390        1.0511898        1.1407237        1.0744953       0.96402914       0.38157759E-03   0.64182009E-02
  7737.3090        1.0601516        1.1200239        1.0846535       0.94452579      -0.45215183E-02  -0.13729952E-01
  7738.0780        1.0442312        1.1018448        1.0699279       0.92754157      -0.20748818E-01  -0.82279540E-02
  7738.8440        1.0283021        1.0860764        1.0551891       0.91296341      -0.17151428E-01   0.61024015E-02
  7739.6160        1.0178523        1.0724081        1.0459388       0.90049456      -0.11363324E-01   0.91110316E-03
  7740.3880        1.0107572        1.0608318        1.0400432       0.89011788      -0.15744684E-01  -0.64169807E-02
  7741.1610       0.99352674        1.0511962        1.0240139       0.88168331      -0.21277559E-01  -0.51477467E-02
  7741.9520       0.97747907        1.0432149        1.0091953       0.87493110      -0.23795760E-01  -0.10776521E-03
  7744.4520       0.91521489        1.0287845       0.95081560       0.86438518      -0.21632215E-01   0.15936488E-02
  7746.9690       0.86895025        1.0270953       0.90846188       0.86660687      -0.15800424E-01   0.18968445E-02
  7749.4530       0.83619697        1.0333213       0.87956824       0.87669255      -0.12146095E-01   0.10129727E-02
  7751.9350       0.80863275        1.0426868       0.85586055       0.88991457      -0.10770002E-01   0.97627795E-03
  7754.4550       0.78232542        1.0518118       0.83346881       0.90295514      -0.72627529E-02   0.21126769E-02
  7756.9490       0.77221730        1.0599854       0.82723587       0.91500394      -0.17703983E-03   0.25721782E-02
  7759.4300       0.78144465        1.0672944       0.84031820       0.92616798       0.55338339E-02   0.15323434E-02
  7761.9470       0.79987540        1.0738964       0.86265988       0.93668090       0.74816126E-02   0.10289892E-02
  7764.4680       0.81913701        1.0797130       0.88583862       0.94641455       0.10717881E-01   0.57976980E-03
  7766.9650       0.85365773        1.0847135       0.92423918       0.95529495       0.10390897E-01  -0.59121211E-04
  7769.4620       0.87102915        1.0889816       0.94549045       0.96344287       0.10422630E-01   0.12442049E-03
  7771.9870       0.90600018        1.0925776       0.98438483       0.97096224       0.11015737E-01  -0.10470101E-02
  7774.4880       0.92639425        1.0954505        1.0086650       0.97772119       0.51603574E-02  -0.18903927E-02
  7776.9970       0.93185357        1.0976684        1.0180228       0.98383756       0.15448698E-02  -0.71899558E-03
  7780.5620       0.93577779        1.0997241        1.0274863       0.99143256       0.79317819E-03  -0.74401576E-03
  7784.1490       0.93752638        1.1005591        1.0348084       0.99784110      -0.37763309E-02  -0.54966574E-03
  7787.6930       0.90884877        1.1002399        1.0116374        1.0030285      -0.31264882E-02   0.64952229E-03
  7791.2820       0.91522514        1.0988290        1.0235904        1.0071943       0.85671158E-03   0.24226704E-03
  7794.8620       0.91499054        1.0964034        1.0289184        1.0103312      -0.13896758E-02  -0.62002129E-03
  7798.4360       0.90528340        1.0930390        1.0247646        1.0125201      -0.35789208E-02  -0.28691374E-03
  7802.0150       0.88939052        1.0887977        1.0144327        1.0138399      -0.34419698E-02   0.49094670E-04
  7805.6140       0.88057694        1.0837251        1.0112113        1.0143595      -0.32265192E-02   0.14559579E-03
  7809.2040       0.86619507        1.0779312        1.0024076        1.0141436      -0.23952817E-02   0.45948993E-03
  7812.8090       0.86334289        1.0714483        1.0051568        1.0132622       0.79510844E-04  -0.55567654E-04
  7816.3810       0.86676572        1.0644399        1.0141299        1.0118040      -0.27940907E-02  -0.49580866E-03
  7819.9940       0.84326735        1.0568321       0.99624536        1.0098101      -0.34828743E-02   0.51497719E-04
  7823.6050       0.84160544        1.0487805        1.0001942        1.0073693      -0.24220712E-02  -0.14684453E-03
  7827.2230       0.82575819        1.0403383       0.98996864        1.0045487      -0.45444134E-02   0.51963966E-04
  7830.8140       0.80884476        1.0316611       0.97863491        1.0014512      -0.20474630E-02   0.74462891E-03
  7834.4380       0.81098575        1.0226771       0.98640688       0.99809819       0.82808416E-03  -0.78229858E-04
  7838.0600       0.81484506        1.0135445       0.99589406       0.99459348      -0.26143165E-02  -0.35313837E-03
  7841.6900       0.79202673        1.0043125       0.97871603       0.99100182      -0.17328753E-02   0.74856858E-03
  7845.3200       0.80226438       0.99507622       0.99459399       0.98740581       0.28202914E-02   0.12543159E-02
