# XDI/1.0 Athena/0.9.26
# Element.edge:                  K
# Element.symbol:                Co
# Column.1:                      energy eV
# Column.2:                      norm
# Column.3:                      nbkg
# Column.4:                      flat
# Column.5:                      fbkg
# Column.6:                      nder
# Column.7:                      nsec
# Athena.e0:                     7721.54
# Athena.eshift:                 0
# Athena.rbkg:                   1.0
# Athena.importance:             1
# Athena.standard:               None
# Athena.bkg_kweight:            3
# Athena.edge_step:              1.1949832
# Athena.fixed_step:             no
# Athena.pre_edge_range:         -82.964 -19.904
# Athena.pre_edge_line:          0.204336 + 0.000188047 * E
# Athena.normalization_range:    45 125.256
# Athena.post_edge_polynomial:   15.737050 - 0.0016688 * E + 0 * E^2 + 0 * E^3
# Athena.spline_range_energy:    0.000 125.180
# Athena.clamps:                 0 24
# Athena.spline_range_k:         0.000 5.732
# Athena.kweight:                2
# Athena.window:                 hanning
# Athena.phase_correction:       no
# Athena.k_range:                .4 5.35
# Athena.dk:                     .5
# Athena.r_range:                .4 5.1
# Athena.dr:                     .5
# Athena.window:                 hanning
# Athena.plot_multiplier:        1
# Athena.y_offset:               0.2
# ///
#------------------------
#   e         norm        nbkg        flat        fbkg        nder        nsec
  7600.0670      -0.21400834      -0.14008340E-01  -0.21400834      -0.21400834       0.11991408E-01  -0.49184570E-03
  7610.6410      -0.87211196E-01   0.11278880      -0.87211195E-01  -0.87211195E-01   0.67906313E-02  -0.36676693E-03
  7624.5560      -0.47712572E-01   0.15228743      -0.47712571E-01  -0.47712571E-01   0.30096525E-02  -0.20642222E-03
  7637.2000      -0.72778355E-02   0.19272216      -0.72778354E-02  -0.72778354E-02   0.13082637E-02  -0.13311396E-03
  7649.6990      -0.14818898E-01   0.18518110      -0.14818898E-01  -0.14818898E-01  -0.33723176E-03   0.92096923E-04
  7662.1990      -0.15708292E-01   0.18429171      -0.15708292E-01  -0.15708292E-01   0.36105946E-02   0.21865459E-04
  7674.7330       0.75568728E-01   0.27556873       0.75568728E-01   0.75568728E-01   0.21014814E-03  -0.27563681E-03
  7687.3310      -0.10426849E-01   0.18957315      -0.10426849E-01  -0.10426849E-01  -0.33167096E-02   0.44705939E-05
  7700.0100      -0.82677407E-02   0.19173226      -0.82677406E-02  -0.82677406E-02   0.32315134E-03   0.91136512E-03
  7700.3880      -0.62074622E-02   0.19379254      -0.62074622E-02  -0.62074622E-02   0.85829848E-02   0.63746783E-02
  7700.7190      -0.21824045E-02   0.19781760      -0.21824044E-02  -0.21824045E-02   0.48427983E-02  -0.20519713E-01
  7701.0710      -0.28998310E-02   0.19710017      -0.28998310E-02  -0.28998310E-02  -0.54319795E-02  -0.44902002E-02
  7701.4340      -0.60662698E-02   0.19393373      -0.60662698E-02  -0.60662698E-02   0.16323051E-02   0.14301671E-01
  7701.7980      -0.17131452E-02   0.19828685      -0.17131452E-02  -0.17131452E-02   0.49653353E-02  -0.66923526E-02
  7702.1550      -0.24862631E-02   0.19751374      -0.24862630E-02  -0.24862630E-02  -0.31928811E-02  -0.14217902E-01
  7702.5150      -0.40024409E-02   0.19599756      -0.40024409E-02  -0.40024409E-02  -0.52289002E-02  -0.59885508E-03
  7702.8790      -0.62719868E-02   0.19372801      -0.62719867E-02  -0.62719868E-02  -0.36264521E-02   0.57949525E-02
  7703.2420      -0.66388716E-02   0.19336113      -0.66388715E-02  -0.66388715E-02  -0.10159697E-02   0.74128949E-02
  7703.6000      -0.70045009E-02   0.19299550      -0.70045009E-02  -0.70045009E-02   0.17182451E-02   0.12529825E-01
  7703.9610      -0.54034534E-02   0.19459655      -0.54034533E-02  -0.54034533E-02   0.79929743E-02   0.45057926E-02
  7704.3250      -0.12095946E-02   0.19879041      -0.12095946E-02  -0.12095946E-02   0.49849447E-02  -0.13574721E-01
  7704.6870      -0.17843835E-02   0.19821562      -0.17843835E-02  -0.17843835E-02  -0.18622734E-02  -0.11649961E-01
  7705.0200      -0.25038746E-02   0.19749613      -0.25038746E-02  -0.25038746E-02  -0.31117783E-02   0.25408666E-02
  7705.3810      -0.39439577E-02   0.19605604      -0.39439576E-02  -0.39439576E-02  -0.98912001E-04   0.23845116E-01
  7705.7490      -0.25759814E-02   0.19742402      -0.25759814E-02  -0.25759814E-02   0.14271311E-01   0.32853285E-01
  7706.1120       0.64883710E-02   0.20648837       0.64883710E-02   0.64883710E-02   0.23916840E-01   0.21029970E-01
  7706.4710       0.14691977E-01   0.21469198       0.14691977E-01   0.14691977E-01   0.29454950E-01   0.11359089E-01
  7706.8310       0.27666480E-01   0.22766648       0.27666480E-01   0.27666480E-01   0.32084024E-01  -0.48762702E-02
  7707.1960       0.37952895E-01   0.23795289       0.37952894E-01   0.37952894E-01   0.25919654E-01  -0.18584971E-01
  7707.5570       0.46484148E-01   0.24648415       0.46484148E-01   0.46484148E-01   0.18591336E-01  -0.26891919E-01
  7707.9150       0.51320065E-01   0.25132006       0.51320065E-01   0.51320065E-01   0.65843641E-02  -0.21107329E-01
  7708.2800       0.51244644E-01   0.25124464       0.51244643E-01   0.51244643E-01   0.33307367E-02  -0.90436532E-02
  7708.6460       0.53754834E-01   0.25375483       0.53754833E-01   0.53754833E-01  -0.26546399E-04  -0.15468704E-01
  7708.9820       0.51226008E-01   0.25122601       0.51226008E-01   0.51226008E-01  -0.75282933E-02   0.34550331E-02
  7709.2900       0.48906613E-01   0.24890661       0.48906612E-01   0.48906612E-01   0.21984949E-02   0.24765333E-01
  7709.5960       0.52575884E-01   0.25257588       0.52575884E-01   0.52575884E-01   0.76776210E-02  -0.11038059E-01
  7709.9030       0.53612994E-01   0.25361299       0.53612994E-01   0.53612994E-01  -0.45678352E-02  -0.37833077E-01
  7710.2110       0.49766665E-01   0.24976666       0.49766665E-01   0.49766665E-01  -0.15589721E-01  -0.11411206E-01
  7710.5140       0.44087675E-01   0.24408767       0.44087674E-01   0.44087674E-01  -0.11540082E-01   0.20451668E-01
  7710.8230       0.42704135E-01   0.24270413       0.42704135E-01   0.42704135E-01  -0.30733003E-02   0.31776454E-01
  7711.1080       0.42262134E-01   0.24226213       0.42262134E-01   0.42262134E-01   0.73351317E-02   0.11904084E-01
  7711.4160       0.47053868E-01   0.24705387       0.47053868E-01   0.47053868E-01   0.39858217E-02  -0.24300580E-01
  7711.7250       0.44721386E-01   0.24472139       0.44721386E-01   0.44721386E-01  -0.76583261E-02  -0.12592446E-01
  7712.0290       0.42359314E-01   0.24235931       0.42359314E-01   0.42359314E-01  -0.37333474E-02   0.20580107E-02
  7712.3330       0.42451511E-01   0.24245151       0.42451511E-01   0.42451511E-01  -0.64070556E-02   0.11465582E-01
  7712.6440       0.38418975E-01   0.23841897       0.38418975E-01   0.38418975E-01   0.33179852E-02   0.33197850E-01
  7712.9530       0.44508662E-01   0.24450866       0.44508662E-01   0.44508662E-01   0.14175612E-01   0.32969203E-01
  7713.2350       0.46796762E-01   0.24679676       0.46796761E-01   0.46796761E-01   0.22802784E-01   0.49089721E-01
  7713.5380       0.57848291E-01   0.25784829       0.57848290E-01   0.57848290E-01   0.42893099E-01   0.57478943E-01
  7713.8530       0.73304697E-01   0.27330470       0.73304696E-01   0.73304696E-01   0.58324771E-01   0.55022623E-01
  7714.1610       0.94184623E-01   0.29418462       0.94184623E-01   0.94184623E-01   0.77172193E-01   0.20913588E-01
  7714.4700       0.12091994       0.32091994       0.12091994       0.12091994       0.71228455E-01  -0.52086523E-01
  7714.7770       0.13806135       0.33806135       0.13806135       0.13806135       0.45086895E-01  -0.59708589E-01
  7715.0770       0.14828768       0.34828768       0.14828768       0.14828768       0.34985342E-01   0.60246318E-02
  7715.3860       0.15936742       0.35936742       0.15936742       0.15936742       0.48755895E-01   0.18207576E-01
  7715.6700       0.17719993       0.37719993       0.17719993       0.17719993       0.45782434E-01  -0.49193538E-01
  7715.9720       0.18619593       0.38619593       0.18619593       0.18619593       0.19928482E-01  -0.57524423E-01
  7716.1370       0.18650653       0.38650653       0.18650653       0.18650653       0.18918529E-01   0.57674067E-01
  7716.2550       0.19154987       0.39154987       0.19154987       0.19154987       0.36250243E-01   0.13527747
  7716.3670       0.19484409       0.39484409       0.19484409       0.19484409       0.50032347E-01   0.15463863
  7716.4990       0.20375777       0.40375777       0.20375777       0.20375777       0.73982068E-01   0.63717343E-01
  7716.6200       0.21356155       0.41356155       0.21356155       0.21356155       0.66152835E-01  -0.16503891
  7716.7330       0.21923753       0.41923753       0.21923753       0.21923753       0.35362964E-01  -0.16289584
  7716.8670       0.22229620       0.42229620       0.22229620       0.22229620       0.25917562E-01  -0.10955099E-01
  7716.9880       0.22584651       0.42584651       0.22584651       0.22584651       0.32569413E-01   0.49096485E-01
  7717.1010       0.22991745       0.42991744       0.22991744       0.22991744       0.37406139E-01   0.61964388E-01
  7717.2330       0.23501101       0.43501101       0.23501101       0.23501101       0.47750688E-01   0.20054912
  7717.3500       0.24180737       0.44180737       0.24180737       0.24180737       0.87342871E-01   0.52167450E-01
  7717.4620       0.25501253       0.45501253       0.25501253       0.25501253       0.59697034E-01  -0.16373598
  7717.5920       0.25625405       0.45625405       0.25625405       0.25625405       0.47718765E-01   0.92827193E-01
  7717.7100       0.26684678       0.46684678       0.26684678       0.26684678       0.82718178E-01   0.14097855
  7717.8420       0.27693359       0.47693359       0.27693359       0.27693359       0.82963404E-01   0.72822520E-01
  7717.9600       0.28758764       0.48758763       0.28758763       0.28758763       0.10092381       0.79765766E-01
  7718.0740       0.30034792       0.50034792       0.30034792       0.30034792       0.10146906      -0.79662239E-01
  7718.2060       0.31254902       0.51254902       0.31254902       0.31254902       0.81326898E-01  -0.14068083
  7718.3280       0.32100495       0.52100495       0.32100495       0.32100495       0.65736129E-01   0.83428697E-01
  7718.4410       0.32799701       0.52799701       0.32799701       0.32799701       0.10093264       0.12716730
  7718.5730       0.34573345       0.54573344       0.34573344       0.34573344       0.96892118E-01  -0.57261360E-01
  7718.6930       0.35241383       0.55241383       0.35241383       0.35241383       0.86502779E-01   0.98942943E-02
  7718.8050       0.36580209       0.56580209       0.36580209       0.36580209       0.99187595E-01   0.12376296
  7718.9360       0.37651641       0.57651641       0.37651641       0.37651641       0.11657718       0.23078810
  7719.0560       0.39506296       0.59506296       0.39506296       0.39506296       0.15711541       0.28593336E-01
  7719.1680       0.41296719       0.61296719       0.41296719       0.41296719       0.12321083      -0.12632321
  7719.2990       0.42500320       0.62500319       0.42500319       0.42500319       0.12641887       0.93914232E-01
  7719.4200       0.44482474       0.64482474       0.44482474       0.44482474       0.14687722       0.35850872E-02
  7719.5350       0.45966622       0.65966622       0.45966622       0.45966622       0.12726495       0.35670895E-01
  7719.6660       0.47613192       0.67613192       0.47613192       0.47613192       0.15565226       0.89260038E-01
  7719.7880       0.49904624       0.69904624       0.49904624       0.49904624       0.14984774       0.36433513E-01
  7719.9010       0.51134614       0.71134613       0.51134613       0.51134613       0.16421414       0.22847421
  7720.0340       0.53944292       0.73944291       0.53944291       0.53944291       0.20605239       0.17629990
  7720.1540       0.56347739       0.76347739       0.56347739       0.56347739       0.20881801      -0.13356539
  7720.2670       0.58809751       0.78809751       0.58809751       0.58809751       0.17493166      -0.11594095
  7720.3970       0.60598579       0.80598578       0.60598578       0.60598578       0.18064436      -0.44425210E-01
  7720.5160       0.63307796       0.83307796       0.63307796       0.63307796       0.16386978      -0.19579379E-01
  7720.6460       0.64678936       0.84678936       0.64678936       0.64678936       0.17576909       0.24346786
  7720.7660       0.67702023       0.87702023       0.67702023       0.67702023       0.22473674       0.13083457
  7720.8790       0.69915302       0.89915302       0.69915302       0.69915302       0.20625355       0.27830705E-01
  7721.0130       0.72796486       0.92796485       0.72796485       0.72796485       0.23161093      -0.68861864E-01
  7721.1330       0.75798220       0.95798219       0.75798219       0.75798219       0.18876263      -0.15817194
  7721.2460       0.77194655       0.97194655       0.77194655       0.77194655       0.19475687       0.26952871
  7721.3790       0.80589239        1.0058924       0.80589238       0.80589238       0.25506670       0.27102453
  7721.5000       0.83673350        1.0367335       0.83667134       0.83667134       0.26359710      -0.11623937
  7721.6120       0.86731051        2.2775944       0.86742239        2.0777063       0.22798293      -0.19584810
  7721.7440       0.89236133        2.2599339       0.89267832        2.0602509       0.21581016       0.23515184
  7721.8620       0.92126305        2.2442843       0.92176340        2.0447847       0.28677089      -0.20911167E-01
  7721.9740       0.95831863        2.2295504       0.95899301        2.0302248       0.21100059      -0.56040410
  7722.1040       0.97232519        2.2125943       0.97320158        2.0134707       0.15115309       0.57438810E-01
  7722.2260       0.99640921        2.1968236       0.99747517        1.9978896       0.22547517       0.26525763
  7722.3580        1.0295959        2.1799143        1.0308670        1.9811854       0.21852853      -0.14756201
  7722.4790        1.0516969        2.1645542        1.0531560        1.9660133       0.18814198      -0.17552949
  7722.5930        1.0738093        2.1502047        1.0754455        1.9518410       0.17727910      -0.26345970
  7722.7240        1.0951303        2.1338611        1.0969701        1.9357008       0.12359436      -0.22116677
  7722.8460        1.1050786        2.1187796        1.1071080        1.9208090       0.12132391       0.21422283
  7722.9580        1.1235201        2.1050523        1.1257235        1.9072557       0.17372250       0.26092154
  7723.0510        1.1406917        2.0937391        1.1430396        1.8960870       0.17481282      -0.12948552
  7723.2130        1.1680974        2.0742166        1.1706970        1.8768162       0.14070369      -0.13840485
  7723.4060        1.1906415        2.0512623        1.1935411        1.8541618       0.12567910      -0.22391036E-01
  7723.6030        1.2171122        2.0281709        1.2203179        1.8313766       0.13197119      -0.50634363E-01
  7723.8000        1.2426382        2.0054193        1.2461499        1.8089310       0.10572916      -0.15204878
  7724.0000        1.2590867        1.9826662        1.2629092        1.7864887       0.71607822E-01  -0.18519459
  7724.1980        1.2711381        1.9604806        1.2752683        1.7646108       0.32021716E-01  -0.15049429
  7724.3960        1.2717673        1.9386308        1.2762052        1.7430687       0.12012083E-01  -0.41219433E-01
  7724.5920        1.2758709        1.9173299        1.2806133        1.7220724       0.15781259E-01  -0.61233972E-01
  7724.7890        1.2779693        1.8962471        1.2830179        1.7012956      -0.12052868E-01  -0.11896947
  7725.0080        1.2708569        1.8731913        1.2762457        1.6785802      -0.33710039E-01  -0.32117015E-01
  7725.7230        1.2464842        1.8006740        1.2529840        1.6071739      -0.42050160E-01  -0.10413418E-01
  7726.5070        1.2078237        1.7259018        1.2155418        1.5336199      -0.49319751E-01   0.15669854E-03
  7727.3020        1.1686083        1.6549944        1.1775617        1.4639478      -0.41802733E-01   0.69378175E-02
  7728.0660        1.1426532        1.5913663        1.1527938        1.4015069      -0.38503694E-01   0.82754571E-02
  7728.8300        1.1097746        1.5320191        1.1211023        1.3433468      -0.29157835E-01   0.18366089E-01
  7729.5930        1.0981292        1.4768806        1.1106425        1.2893939      -0.10458676E-01   0.16986949E-01
  7730.3530        1.0938461        1.4259224        1.1075403        1.2396167      -0.32867112E-02   0.70690718E-02
  7731.1470        1.0930217        1.3767581        1.1079497        1.1916861       0.52666143E-03   0.32759852E-02
  7731.9100        1.0946661        1.3332895        1.1107797        1.1494031       0.18139978E-02  -0.57487593E-02
  7732.6790        1.0958007        1.2930785        1.1131093        1.1103870      -0.82804377E-02  -0.71072861E-02
  7733.4410        1.0819887        1.2566559        1.1004813        1.0751486      -0.90672572E-02   0.39489179E-02
  7734.2140        1.0818825        1.2230436        1.1015762        1.0427373      -0.22188488E-02  -0.15364930E-02
  7734.9760        1.0785828        1.1930556        1.0994606        1.0139334      -0.11425774E-01  -0.83950967E-02
  7735.7750        1.0640468        1.1648118        1.0861662       0.98693113      -0.15323595E-01   0.55462802E-02
  7736.5390        1.0546320        1.1407220        1.0779385       0.96402855      -0.27569379E-02   0.64383480E-02
  7737.3090        1.0598177        1.1191822        1.0843207       0.94368519      -0.54471690E-02  -0.10908424E-01
  7738.0780        1.0462488        1.1002703        1.0719467       0.92596817      -0.19545003E-01  -0.78524943E-02
  7738.8440        1.0298161        1.0838714        1.0567043       0.91075962      -0.17500748E-01   0.57230118E-02
  7739.6160        1.0193327        1.0696622        1.0474204       0.89774997      -0.10743011E-01   0.20461475E-02
  7740.3880        1.0132289        1.0576340        1.0425162       0.88692138      -0.14341496E-01  -0.67110275E-02
  7741.1610       0.99717506        1.0476289        1.0276635       0.87811735      -0.21111548E-01  -0.63834263E-02
  7741.9520       0.98021044        1.0393492        1.0119280       0.87106679      -0.24325175E-01  -0.31879961E-03
  7744.4520       0.91712091        1.0244328       0.95272318       0.86003503      -0.22160717E-01   0.15858359E-02
  7746.9690       0.86903012        1.0227958       0.90854348       0.86230921      -0.16369036E-01   0.18470188E-02
  7749.4530       0.83525936        1.0294031       0.87863254       0.87277625      -0.12923777E-01   0.99194030E-03
  7751.9350       0.80485065        1.0392753       0.85208053       0.88650518      -0.11443060E-01   0.98987292E-03
  7754.4550       0.77802117        1.0488893       0.82916681       0.90003495      -0.79724322E-02   0.21489819E-02
  7756.9490       0.76487687        1.0575021       0.81989786       0.91252312      -0.66806520E-03   0.27603895E-02
  7759.4300       0.77469755        1.0652060       0.83357369       0.92408211       0.57605056E-02   0.16620504E-02
  7761.9470       0.79366788        1.0721677       0.85645511       0.93495489       0.76388626E-02   0.10850024E-02
  7764.4680       0.81318214        1.0783053       0.87988668       0.94500988       0.11226748E-01   0.71144438E-03
  7766.9650       0.85000370        1.0835875       0.92058825       0.95417210       0.11208890E-01  -0.14018518E-04
  7769.4620       0.86915934        1.0881031       0.94362390       0.96256767       0.11156739E-01  -0.18340242E-04
  7771.9870       0.90603284        1.0919167       0.98442093       0.97030482       0.11116786E-01  -0.11605132E-02
  7774.4880       0.92503230        1.0949749        1.0073066       0.97724925       0.53239999E-02  -0.17727239E-02
  7776.9970       0.93270608        1.0973506        1.0188791       0.98352357       0.22354392E-02  -0.73896978E-03
  7780.5620       0.93861036        1.0995862        1.0303229       0.99129872       0.83549749E-03  -0.87701615E-03
  7784.1490       0.93868156        1.1005553        1.0359678       0.99784159      -0.40369803E-02  -0.55806189E-03
  7787.6930       0.90982265        1.1003283        1.0126158        1.0031215      -0.31440418E-02   0.65383312E-03
  7791.2820       0.91625511        1.0989764        1.0246251        1.0073464       0.62681134E-03   0.25028205E-03
  7794.8620       0.91431626        1.0965809        1.0282491        1.0105138      -0.13497698E-02  -0.52756486E-03
  7798.4360       0.90659886        1.0932244        1.0260853        1.0127108      -0.31473877E-02  -0.31373036E-03
  7802.0150       0.89180300        1.0889748        1.0168507        1.0140225      -0.35938831E-02  -0.36539965E-04
  7805.6140       0.88080196        1.0838838        1.0114420        1.0145239      -0.34096716E-02   0.14400087E-03
  7809.2040       0.86729087        1.0780675        1.0035093        1.0142860      -0.25586608E-02   0.45851865E-03
  7812.8090       0.86239240        1.0715646        1.0042126        1.0133848      -0.11062987E-03   0.11661289E-04
  7816.3810       0.86649688        1.0645449        1.0138675        1.0119155      -0.24749677E-02  -0.50504246E-03
  7819.9940       0.84460976        1.0569405       0.99759449        1.0099252      -0.37393599E-02  -0.36708448E-04
  7823.6050       0.83948374        1.0489135       0.99807950        1.0075093      -0.27401496E-02  -0.78301271E-04
  7827.2230       0.82480122        1.0405235       0.98901887        1.0047412      -0.43053998E-02   0.88436771E-04
  7830.8140       0.80844612        1.0319318       0.97824372        1.0017294      -0.21026089E-02   0.73815596E-03
  7834.4380       0.80963089        1.0230743       0.98505972       0.99850310       0.10203955E-02  -0.74953255E-04
  7838.0600       0.81583990        1.0141149       0.99689685       0.99517183      -0.26457202E-02  -0.38343530E-03
  7841.6900       0.79044413        1.0051098       0.97714162       0.99180730      -0.17602773E-02   0.84314685E-03
  7845.3200       0.80306029       0.99616014       0.99539833       0.98849819       0.34755260E-02   0.14423701E-02
