# XDI/1.0 Athena/0.9.26
# Element.edge:                  K
# Element.symbol:                Co
# Column.1:                      energy eV
# Column.2:                      norm
# Column.3:                      nbkg
# Column.4:                      flat
# Column.5:                      fbkg
# Column.6:                      nder
# Column.7:                      nsec
# Athena.e0:                     7721.54
# Athena.eshift:                 0
# Athena.rbkg:                   1.0
# Athena.importance:             1
# Athena.standard:               None
# Athena.bkg_kweight:            3
# Athena.edge_step:              1.1968276
# Athena.fixed_step:             no
# Athena.pre_edge_range:         -82.964 -19.904
# Athena.pre_edge_line:          0.244373 + 0.000182831 * E
# Athena.normalization_range:    45 125.256
# Athena.post_edge_polynomial:   15.891849 - 0.00168864 * E + 0 * E^2 + 0 * E^3
# Athena.spline_range_energy:    0.000 125.180
# Athena.clamps:                 0 24
# Athena.spline_range_k:         0.000 5.732
# Athena.kweight:                2
# Athena.window:                 hanning
# Athena.phase_correction:       no
# Athena.k_range:                .4 5.35
# Athena.dk:                     .5
# Athena.r_range:                .4 5.1
# Athena.dr:                     .5
# Athena.window:                 hanning
# Athena.plot_multiplier:        1
# Athena.y_offset:               0.2
# ///
#------------------------
#   e         norm        nbkg        flat        fbkg        nder        nsec
  7600.0670      -0.21344162      -0.13441618E-01  -0.21344162      -0.21344162       0.11899245E-01  -0.48351753E-03
  7610.6410      -0.87619006E-01   0.11238100      -0.87619005E-01  -0.87619005E-01   0.67865306E-02  -0.36208601E-03
  7624.5560      -0.47246275E-01   0.15275373      -0.47246274E-01  -0.47246274E-01   0.30321207E-02  -0.20731452E-03
  7637.2000      -0.70889139E-02   0.19291109      -0.70889138E-02  -0.70889138E-02   0.12804644E-02  -0.13419767E-03
  7649.6990      -0.15051559E-01   0.18494844      -0.15051558E-01  -0.15051558E-01  -0.34201144E-03   0.93784728E-04
  7662.1990      -0.15638858E-01   0.18436114      -0.15638857E-01  -0.15638857E-01   0.36249888E-02   0.21201179E-04
  7674.7330       0.75696411E-01   0.27569641       0.75696409E-01   0.75696409E-01   0.18873889E-03  -0.27655946E-03
  7687.3310      -0.10895472E-01   0.18910453      -0.10895472E-01  -0.10895472E-01  -0.33255036E-02   0.78447966E-05
  7700.0100      -0.83623439E-02   0.19163766      -0.83623437E-02  -0.83623437E-02   0.38703181E-03   0.90719589E-03
  7700.3880      -0.58419976E-02   0.19415800      -0.58419975E-02  -0.58419975E-02   0.85197531E-02   0.64168211E-02
  7700.7190      -0.23218389E-02   0.19767816      -0.23218389E-02  -0.23218389E-02   0.49365579E-02  -0.20232814E-01
  7701.0710      -0.24703285E-02   0.19752967      -0.24703285E-02  -0.24703285E-02  -0.52992591E-02  -0.58345713E-02
  7701.4340      -0.61108092E-02   0.19388919      -0.61108090E-02  -0.61108090E-02   0.76483947E-03   0.14375893E-01
  7701.7980      -0.19142902E-02   0.19808571      -0.19142902E-02  -0.19142902E-02   0.51520149E-02  -0.65251222E-02
  7702.1550      -0.23962064E-02   0.19760379      -0.23962064E-02  -0.23962064E-02  -0.39397736E-02  -0.14348727E-01
  7702.5150      -0.47391079E-02   0.19526089      -0.47391078E-02  -0.47391078E-02  -0.51360223E-02   0.16920513E-02
  7702.8790      -0.61146866E-02   0.19388531      -0.61146864E-02  -0.61146864E-02  -0.27147285E-02   0.64184391E-02
  7703.2420      -0.67127156E-02   0.19328728      -0.67127154E-02  -0.67127154E-02  -0.46981700E-03   0.72375766E-02
  7703.6000      -0.64534246E-02   0.19354658      -0.64534245E-02  -0.64534245E-02   0.25035642E-02   0.10658119E-01
  7703.9610      -0.49126529E-02   0.19508735      -0.49126528E-02  -0.49126528E-02   0.71933706E-02   0.36648863E-02
  7704.3250      -0.12382309E-02   0.19876177      -0.12382309E-02  -0.12382309E-02   0.51606068E-02  -0.12377521E-01
  7704.6870      -0.11660524E-02   0.19883395      -0.11660524E-02  -0.11660524E-02  -0.17927099E-02  -0.13331927E-01
  7705.0200      -0.24841643E-02   0.19751584      -0.24841643E-02  -0.24841643E-02  -0.41050824E-02   0.22116586E-02
  7705.3810      -0.40149796E-02   0.19598502      -0.40149795E-02  -0.40149795E-02  -0.25781887E-03   0.26582553E-01
  7705.7490      -0.26721143E-02   0.19732789      -0.26721142E-02  -0.26721142E-02   0.15273599E-01   0.33006849E-01
  7706.1120       0.71500211E-02   0.20715002       0.71500209E-02   0.71500209E-02   0.23870188E-01   0.18136726E-01
  7706.4710       0.14562161E-01   0.21456216       0.14562161E-01   0.14562161E-01   0.28368315E-01   0.12283871E-01
  7706.8310       0.27546839E-01   0.22754684       0.27546839E-01   0.27546839E-01   0.32702291E-01  -0.21875439E-02
  7707.1960       0.38271322E-01   0.23827132       0.38271321E-01   0.38271321E-01   0.26782345E-01  -0.18423180E-01
  7707.5570       0.46990822E-01   0.24699082       0.46990821E-01   0.46990821E-01   0.19327062E-01  -0.29749311E-01
  7707.9150       0.52167480E-01   0.25216748       0.52167479E-01   0.52167479E-01   0.53925911E-02  -0.23411488E-01
  7708.2800       0.50889666E-01   0.25088966       0.50889665E-01   0.50889665E-01   0.24005559E-02  -0.62030523E-02
  7708.6460       0.53922286E-01   0.25392229       0.53922285E-01   0.53922285E-01   0.85815990E-03  -0.14841403E-01
  7708.9820       0.51492094E-01   0.25149209       0.51492093E-01   0.51492093E-01  -0.80181087E-02   0.25777807E-02
  7709.2900       0.48758624E-01   0.24875862       0.48758623E-01   0.48758623E-01   0.25182506E-02   0.26631392E-01
  7709.5960       0.53038300E-01   0.25303830       0.53038299E-01   0.53038299E-01   0.83335657E-02  -0.14114550E-01
  7709.9030       0.53867100E-01   0.25386710       0.53867099E-01   0.53867099E-01  -0.61339683E-02  -0.39091202E-01
  7710.2110       0.49265909E-01   0.24926591       0.49265908E-01   0.49265908E-01  -0.15707524E-01  -0.70700743E-02
  7710.5140       0.44269803E-01   0.24426980       0.44269802E-01   0.44269802E-01  -0.10453784E-01   0.21351739E-01
  7710.8230       0.42868194E-01   0.24286819       0.42868193E-01   0.42868193E-01  -0.26402594E-02   0.30616950E-01
  7711.1080       0.42701489E-01   0.24270149       0.42701488E-01   0.42701488E-01   0.77326847E-02   0.95158415E-02
  7711.4160       0.47453676E-01   0.24745367       0.47453675E-01   0.47453675E-01   0.30026346E-02  -0.26318739E-01
  7711.7250       0.44554114E-01   0.24455411       0.44554114E-01   0.44554114E-01  -0.85059772E-02  -0.99484098E-02
  7712.0290       0.42239512E-01   0.24223951       0.42239511E-01   0.42239511E-01  -0.30957406E-02   0.37911226E-02
  7712.3330       0.42671904E-01   0.24267190       0.42671903E-01   0.42671903E-01  -0.62009747E-02   0.99736240E-02
  7712.6440       0.38425912E-01   0.23842591       0.38425911E-01   0.38425911E-01   0.30380382E-02   0.32913214E-01
  7712.9530       0.44555488E-01   0.24455549       0.44555487E-01   0.44555487E-01   0.14205218E-01   0.33748355E-01
  7713.2350       0.46821196E-01   0.24682119       0.46821195E-01   0.46821195E-01   0.22983316E-01   0.48002856E-01
  7713.5380       0.58000728E-01   0.25800073       0.58000727E-01   0.58000727E-01   0.42286888E-01   0.57374391E-01
  7713.8530       0.72954493E-01   0.27295449       0.72954491E-01   0.72954491E-01   0.58440690E-01   0.54756715E-01
  7714.1610       0.94409278E-01   0.29440928       0.94409276E-01   0.94409276E-01   0.76400322E-01   0.20519830E-01
  7714.4700       0.12009349       0.32009349       0.12009349       0.12009349       0.71101425E-01  -0.49490181E-01
  7714.7770       0.13820776       0.33820775       0.13820775       0.13820775       0.45914370E-01  -0.61457892E-01
  7715.0770       0.14796351       0.34796351       0.14796351       0.14796351       0.33796485E-01   0.41560396E-03
  7715.3860       0.15878981       0.35878981       0.15878981       0.15878981       0.46167473E-01   0.20492043E-01
  7715.6700       0.17534083       0.37534082       0.17534082       0.17534082       0.45948266E-01  -0.41876389E-01
  7715.9720       0.18571550       0.38571549       0.18571549       0.18571549       0.21627909E-01  -0.62029123E-01
  7716.1370       0.18544106       0.38544106       0.18544106       0.18544106       0.16980666E-01   0.66663627E-01
  7716.2550       0.19052103       0.39052102       0.19052102       0.19052102       0.40493715E-01   0.14241967
  7716.3670       0.19475461       0.39475461       0.19475461       0.19475461       0.49737191E-01   0.11570556
  7716.4990       0.20265690       0.40265690       0.20265690       0.20265690       0.68725872E-01   0.75140044E-01
  7716.6200       0.21214226       0.41214225       0.21214225       0.21214225       0.68747622E-01  -0.12995625
  7716.7330       0.21874385       0.41874384       0.21874384       0.21874384       0.38316110E-01  -0.16389946
  7716.8670       0.22160634       0.42160633       0.22160633       0.22160633       0.28264455E-01  -0.15676634E-01
  7716.9880       0.22595128       0.42595128       0.22595128       0.22595128       0.34318568E-01   0.25831199E-01
  7717.1010       0.22963688       0.42963688       0.22963688       0.22963688       0.34308955E-01   0.54794429E-01
  7717.2330       0.23435698       0.43435697       0.23435697       0.23435697       0.47743203E-01   0.22912426
  7717.3500       0.24152494       0.44152494       0.24152494       0.24152494       0.91360896E-01   0.39215854E-01
  7717.4620       0.25527862       0.45527862       0.25527862       0.25527862       0.56723634E-01  -0.19283497
  7717.5920       0.25525206       0.45525205       0.25525205       0.25525205       0.44694832E-01   0.10186635
  7717.7100       0.26636294       0.46636293       0.26636293       0.26636293       0.81986488E-01   0.13457484
  7717.8420       0.27574868       0.47574868       0.27574868       0.27574868       0.78338544E-01   0.55167791E-01
  7717.9600       0.28594757       0.48594757       0.28594757       0.28594757       0.95778435E-01   0.11033108
  7718.0740       0.29796928       0.49796927       0.29796927       0.29796927       0.10393535      -0.29259467E-01
  7718.2060       0.31151567       0.51151567       0.31151567       0.31151567       0.88580607E-01  -0.15067181
  7718.3280       0.32046875       0.52046875       0.32046875       0.32046875       0.65664713E-01   0.43254558E-01
  7718.4410       0.32694688       0.52694687       0.32694687       0.32694687       0.98745428E-01   0.12432288
  7718.5730       0.34466138       0.54466138       0.34466138       0.34466138       0.96123819E-01  -0.71835952E-01
  7718.6930       0.35117008       0.55117007       0.35117007       0.35117007       0.80642768E-01  -0.83507062E-02
  7718.8050       0.36337051       0.56337050       0.36337050       0.36337050       0.94186455E-01   0.17039582
  7718.9360       0.37405739       0.57405738       0.37405738       0.37405738       0.12204895       0.27641474
  7719.0560       0.39400479       0.59400478       0.39400478       0.39400478       0.16356655       0.12120595E-01
  7719.1680       0.41200483       0.61200482       0.41200482       0.41200482       0.12486093      -0.17456818
  7719.2990       0.42434600       0.62434599       0.42434599       0.42434599       0.12114649       0.81574938E-01
  7719.4200       0.44253375       0.64253374       0.44253374       0.44253374       0.14541781       0.16016657E-01
  7719.5350       0.45866460       0.65866459       0.45866459       0.45866459       0.12492642       0.68632526E-02
  7719.6660       0.47326564       0.67326563       0.47326563       0.47326563       0.14710617       0.13100988
  7719.7880       0.49588246       0.69588245       0.49588245       0.49588245       0.15807192       0.11522743
  7719.9010       0.51041254       0.71041253       0.51041253       0.51041253       0.17418462       0.16240196
  7720.0340       0.53873188       0.73873187       0.53873187       0.53873187       0.19802280       0.11834729
  7720.1540       0.56051231       0.76051230       0.56051230       0.56051230       0.20412649      -0.80241072E-01
  7720.2670       0.58629335       0.78629334       0.58629334       0.58629334       0.17932663      -0.12199290
  7720.3970       0.60408868       0.80408867       0.60408867       0.60408867       0.17448221      -0.71006002E-01
  7720.5160       0.62973942       0.82973941       0.62973941       0.62973941       0.16164613       0.23973580E-01
  7720.6460       0.64433857       0.84433856       0.64433856       0.64433856       0.18045163       0.26620270
  7720.7660       0.67485233       0.87485232       0.67485232       0.67485232       0.22819681       0.10373795
  7720.8790       0.69750843       0.89750841       0.69750841       0.69750841       0.20462257      -0.10040629E-01
  7721.0130       0.72539411       0.92539409       0.72539409       0.72539409       0.22571677      -0.45102216E-01
  7721.1330       0.75484049       0.95484047       0.75484047       0.75484047       0.19316661      -0.11021765
  7721.2460       0.77040193       0.97040191       0.77040191       0.77040191       0.20003606       0.25420455
  7721.3790       0.80404936        1.0040493       0.80404934       0.80404934       0.25570093       0.26154426
  7721.5000       0.83534996        1.0353499       0.83528742       0.83528742       0.26646830      -0.15201238
  7721.6120       0.86613647        2.2698536       0.86624906        2.0699662       0.22028205      -0.19692156
  7721.7440       0.88909878        2.2523061       0.88941778        2.0526251       0.21841944       0.28060828
  7721.8620       0.92074133        2.2367567       0.92124484        2.0372602       0.29043412      -0.36805952E-01
  7721.9740       0.95589863        2.2221170       0.95657727        2.0227957       0.20995407      -0.57893995
  7722.1040       0.97155022        2.2052693       0.97243214        2.0061513       0.15033065       0.32912467E-01
  7722.2260       0.99378195        2.1895994       0.99485465        1.9906721       0.21824801       0.28081313
  7722.3580        1.0269852        2.1727981        1.0282643        1.9740772       0.22165718      -0.10691521
  7722.4790        1.0498612        2.1575360        1.0513295        1.9590043       0.19119846      -0.19237577
  7722.5930        1.0719169        2.1432780        1.0735634        1.9449246       0.17644888      -0.27980831
  7722.7240        1.0930912        2.1270385        1.0949426        1.9288899       0.12264543      -0.21117872
  7722.8460        1.1029461        2.1120532        1.1049883        1.9140954       0.12302066       0.22347866
  7722.9580        1.1218780        2.0984132        1.1240953        1.9006306       0.17493944       0.26546117
  7723.0510        1.1388087        2.0871720        1.1411715        1.8895348       0.17744020      -0.13374274
  7723.2130        1.1671253        2.0677737        1.1697413        1.8703897       0.14083504      -0.14583903
  7723.4060        1.1888052        2.0449652        1.1917230        1.8478831       0.12566734      -0.27655520E-01
  7723.6030        1.2161355        2.0220204        1.2193614        1.8252463       0.13004938      -0.53230762E-01
  7723.8000        1.2400446        1.9994130        1.2435786        1.8029470       0.10469442      -0.13977868
  7724.0000        1.2576992        1.9768041        1.2615459        1.7806508       0.74557247E-01  -0.18268154
  7724.1980        1.2697184        1.9547589        1.2738747        1.7589152       0.31987171E-01  -0.15885761
  7724.3960        1.2703662        1.9330471        1.2748321        1.7375131       0.11649632E-01  -0.33204508E-01
  7724.5920        1.2743084        1.9118808        1.2790808        1.7166532       0.18904595E-01  -0.53302460E-01
  7724.7890        1.2777957        1.8909309        1.2828761        1.6960113      -0.92982347E-02  -0.13191167
  7725.0080        1.2704403        1.8680203        1.2758632        1.6734432      -0.35970661E-01  -0.35271264E-01
  7725.7230        1.2441991        1.7959584        1.2507400        1.6024994      -0.42241595E-01  -0.80299977E-02
  7726.5070        1.2071201        1.7216536        1.2148870        1.5294205      -0.48007628E-01  -0.11642705E-03
  7727.3020        1.1683950        1.6511868        1.1774050        1.4601969      -0.42425434E-01   0.52799971E-02
  7728.0660        1.1409789        1.5879518        1.1511836        1.3981565      -0.39776112E-01   0.87049405E-02
  7728.8300        1.1076171        1.5289689        1.1190164        1.3403683      -0.29124285E-01   0.19765896E-01
  7729.5930        1.0965061        1.4741664        1.1090985        1.2867589      -0.95935893E-02   0.16881578E-01
  7730.3530        1.0930061        1.4235164        1.1067869        1.2372973      -0.34136413E-02   0.57690812E-02
  7731.1470        1.0912013        1.3746468        1.1062237        1.1896692      -0.62843705E-03   0.36770636E-02
  7731.9100        1.0920276        1.3314361        1.1082431        1.1476516       0.23115468E-02  -0.46276665E-02
  7732.6790        1.0947426        1.2914610        1.1121606        1.1088791      -0.77180222E-02  -0.72619641E-02
  7733.4410        1.0802113        1.2552496        1.0988208        1.0738591      -0.88065202E-02   0.44969573E-02
  7734.2140        1.0812246        1.2218293        1.1010429        1.0416476      -0.81519277E-03  -0.22005592E-02
  7734.9760        1.0789600        1.1920098        1.0999698        1.0130196      -0.12184379E-01  -0.99538530E-02
  7735.7750        1.0622048        1.1639216        1.0844640       0.98618080      -0.16353157E-01   0.67017971E-02
  7736.5390        1.0534000        1.1399615        1.0768539       0.96341538      -0.17094696E-02   0.74481365E-02
  7737.3090        1.0595825        1.1185345        1.0842403       0.94319237      -0.49277158E-02  -0.12137947E-01
  7738.0780        1.0458163        1.0997182        1.0716766       0.92557863      -0.20389770E-01  -0.91763743E-02
  7738.8440        1.0282842        1.0833990        1.0553423       0.91045718      -0.19013450E-01   0.65252062E-02
  7739.6160        1.0165736        1.0692550        1.0448389       0.89752039      -0.10354003E-01   0.37240421E-02
  7740.3880        1.0122976        1.0572782        1.0417701       0.88675072      -0.13263529E-01  -0.71062991E-02
  7741.1610       0.99608141        1.0473115        1.0267627       0.87799277      -0.21333235E-01  -0.72538958E-02
  7741.9520       0.97893240        1.0390589        1.0108505       0.87097704      -0.24608622E-01  -0.16119695E-03
  7744.4520       0.91509444        1.0241587       0.95092180       0.85998607      -0.21863734E-01   0.16877207E-02
  7746.9690       0.86924204        1.0224592       0.90900522       0.86222241      -0.16141327E-01   0.17588157E-02
  7749.4530       0.83437166        1.0289620       0.87801906       0.87260940      -0.13067897E-01   0.98255145E-03
  7751.9350       0.80434686        1.0387220       0.85187535       0.88625054      -0.11261977E-01   0.10001678E-02
  7754.4550       0.77803925        1.0482404       0.82950825       0.89970939      -0.80650580E-02   0.21003078E-02
  7756.9490       0.76390866        1.0567788       0.81927751       0.91214767      -0.73103372E-03   0.27575522E-02
  7759.4300       0.77440236        1.0644271       0.83365074       0.92367550       0.56537642E-02   0.16860833E-02
  7761.9470       0.79216617        1.0713497       0.85535037       0.93453389       0.76960105E-02   0.11246591E-02
  7764.4680       0.81317486        1.0774639       0.88030113       0.94459023       0.11319797E-01   0.68469213E-03
  7766.9650       0.84896891        1.0827369       0.91999973       0.95376774       0.11131796E-01  -0.28700518E-04
  7769.4620       0.86876705        1.0872555       0.94370240       0.96219089       0.11176466E-01  -0.11120718E-04
  7771.9870       0.90509713        1.0910831       0.98398081       0.96996680       0.11075947E-01  -0.11456049E-02
  7774.4880       0.92443476        1.0941643        1.0072292       0.97695881       0.54186561E-02  -0.17443321E-02
  7776.9970       0.93224459        1.0965706        1.0189624       0.98328843       0.23368435E-02  -0.74918455E-03
  7780.5620       0.93862875        1.0988596        1.0309211       0.99115202       0.86810920E-03  -0.91974860E-03
  7784.1490       0.93845331        1.0998900        1.0363546       0.99779137      -0.42411985E-02  -0.56237342E-03
  7787.6930       0.90838476        1.0997263        1.0118278        1.0031694      -0.31421756E-02   0.70704930E-03
  7791.2820       0.91604017        1.0984366        1.0250953        1.0074918       0.80218414E-03   0.24751493E-03
  7794.8620       0.91413562        1.0960967        1.0287888        1.0107499      -0.13677411E-02  -0.58168305E-03
  7798.4360       0.90625535        1.0927845        1.0264972        1.0130264      -0.33591764E-02  -0.31284280E-03
  7802.0150       0.89010743        1.0885635        1.0159457        1.0144018      -0.36055056E-02   0.11094022E-04
  7805.6140       0.88037503        1.0834806        1.0118411        1.0149466      -0.32795435E-02   0.12286648E-03
  7809.2040       0.86653079        1.0776469        1.0036105        1.0147266      -0.27222185E-02   0.44601058E-03
  7812.8090       0.86078867        1.0710962        1.0035055        1.0138130      -0.70497443E-04   0.45603979E-04
  7816.3810       0.86602483        1.0639945        1.0143272        1.0122968      -0.23949187E-02  -0.51382302E-03
  7819.9940       0.84358118        1.0562673       0.99753313        1.0102193      -0.37623158E-02  -0.31178934E-04
  7823.6050       0.83884586        1.0480729       0.99844431        1.0076713      -0.26201553E-02  -0.93343407E-04
  7827.2230       0.82464008        1.0394653       0.98989597        1.0047213      -0.44370953E-02   0.56460053E-04
  7830.8140       0.80685884        1.0306036       0.97772996        1.0014748      -0.22131348E-02   0.74430384E-03
  7834.4380       0.80867231        1.0214144       0.98521026       0.99795236       0.93305688E-03  -0.42758522E-04
  7838.0600       0.81361977        1.0120590       0.99582142       0.99426070      -0.25229631E-02  -0.36896602E-03
  7841.6900       0.79037578        1.0025876       0.97825364       0.99046553      -0.17426847E-02   0.74943473E-03
  7845.3200       0.80096788       0.99309725       0.99452195       0.98665134       0.29179331E-02   0.12839168E-02
