# XDI/1.0 Athena/0.9.26
# Element.edge:                  K
# Element.symbol:                Co
# Column.1:                      energy eV
# Column.2:                      norm
# Column.3:                      nbkg
# Column.4:                      flat
# Column.5:                      fbkg
# Column.6:                      nder
# Column.7:                      nsec
# Athena.e0:                     7721.54
# Athena.eshift:                 0
# Athena.rbkg:                   1.0
# Athena.importance:             1
# Athena.standard:               None
# Athena.bkg_kweight:            3
# Athena.edge_step:              1.1947049
# Athena.fixed_step:             no
# Athena.pre_edge_range:         -82.964 -19.904
# Athena.pre_edge_line:          0.235193 + 0.000184057 * E
# Athena.normalization_range:    45 125.256
# Athena.post_edge_polynomial:   15.708674 - 0.00166516 * E + 0 * E^2 + 0 * E^3
# Athena.spline_range_energy:    0.000 125.180
# Athena.clamps:                 0 24
# Athena.spline_range_k:         0.000 5.732
# Athena.kweight:                2
# Athena.window:                 hanning
# Athena.phase_correction:       no
# Athena.k_range:                .4 5.35
# Athena.dk:                     .5
# Athena.r_range:                .4 5.1
# Athena.dr:                     .5
# Athena.window:                 hanning
# Athena.plot_multiplier:        1
# Athena.y_offset:               0.2
# ///
#------------------------
#   e         norm        nbkg        flat        fbkg        nder        nsec
  7600.0670      -0.21479403      -0.14794023E-01  -0.21479402      -0.21479402       0.12135141E-01  -0.50508570E-03
  7610.6410      -0.86477042E-01   0.11352296      -0.86477040E-01  -0.86477040E-01   0.67943653E-02  -0.37458420E-03
  7624.5560      -0.48406818E-01   0.15159318      -0.48406816E-01  -0.48406816E-01   0.29619489E-02  -0.20532220E-03
  7637.2000      -0.78106413E-02   0.19218936      -0.78106411E-02  -0.78106411E-02   0.13412129E-02  -0.13058744E-03
  7649.6990      -0.14684701E-01   0.18531530      -0.14684700E-01  -0.14684700E-01  -0.32141100E-03   0.93502969E-04
  7662.1990      -0.15845595E-01   0.18415441      -0.15845595E-01  -0.15845595E-01   0.36786937E-02   0.19727578E-04
  7674.7330       0.77407717E-01   0.27740772       0.77407715E-01   0.77407715E-01   0.17244918E-03  -0.28202608E-03
  7687.3310      -0.11511602E-01   0.18848840      -0.11511602E-01  -0.11511602E-01  -0.34091858E-02   0.89151701E-05
  7700.0100      -0.87662735E-02   0.19123373      -0.87662733E-02  -0.87662733E-02   0.39779793E-03   0.94123111E-03
  7700.3880      -0.63175547E-02   0.19368245      -0.63175545E-02  -0.63175545E-02   0.88804688E-02   0.72383387E-02
  7700.7190      -0.24700212E-02   0.19752998      -0.24700211E-02  -0.24700211E-02   0.55297800E-02  -0.21038840E-01
  7701.0710      -0.25407149E-02   0.19745929      -0.25407148E-02  -0.25407148E-02  -0.54890590E-02  -0.48967409E-02
  7701.4340      -0.63946984E-02   0.19360530      -0.63946982E-02  -0.63946982E-02   0.20286103E-02   0.15859052E-01
  7701.7980      -0.10659152E-02   0.19893408      -0.10659152E-02  -0.10659152E-02   0.60404715E-02  -0.96443928E-02
  7702.1550      -0.20395184E-02   0.19796048      -0.20395184E-02  -0.20395183E-02  -0.49249969E-02  -0.17097741E-01
  7702.5150      -0.45971380E-02   0.19540286      -0.45971379E-02  -0.45971379E-02  -0.62186091E-02   0.34325443E-02
  7702.8790      -0.65417914E-02   0.19345821      -0.65417912E-02  -0.65417912E-02  -0.24398349E-02   0.70301807E-02
  7703.2420      -0.63708980E-02   0.19362910      -0.63708978E-02  -0.63708978E-02  -0.11076678E-02   0.79808551E-02
  7703.6000      -0.73404199E-02   0.19265958      -0.73404197E-02  -0.73404197E-02   0.33143617E-02   0.13921544E-01
  7703.9610      -0.39878719E-02   0.19601213      -0.39878719E-02  -0.39878718E-02   0.89019226E-02   0.83308905E-03
  7704.3250      -0.88652597E-03   0.19911347      -0.88652595E-03  -0.88652593E-03   0.39183512E-02  -0.16392970E-01
  7704.6870      -0.11431490E-02   0.19885685      -0.11431489E-02  -0.11431489E-02  -0.29993739E-02  -0.12615324E-01
  7705.0200      -0.29710909E-02   0.19702891      -0.29710908E-02  -0.29710908E-02  -0.48492988E-02   0.26118006E-02
  7705.3810      -0.45085623E-02   0.19549144      -0.45085622E-02  -0.45085622E-02  -0.11867843E-02   0.29091894E-01
  7705.7490      -0.38362566E-02   0.19616374      -0.38362565E-02  -0.38362565E-02   0.16358692E-01   0.36677874E-01
  7706.1120       0.74496413E-02   0.20744964       0.74496411E-02   0.74496411E-02   0.25624742E-01   0.17151270E-01
  7706.4710       0.14664807E-01   0.21466481       0.14664806E-01   0.14664806E-01   0.28741909E-01   0.10134075E-01
  7706.8310       0.28115074E-01   0.22811507       0.28115073E-01   0.28115073E-01   0.32911142E-01  -0.37847496E-02
  7707.1960       0.38525385E-01   0.23852538       0.38525384E-01   0.38525384E-01   0.25997965E-01  -0.23344467E-01
  7707.5570       0.46989597E-01   0.24698960       0.46989595E-01   0.46989595E-01   0.15963059E-01  -0.28610332E-01
  7707.9150       0.50002824E-01   0.25000282       0.50002823E-01   0.50002823E-01   0.54271366E-02  -0.14657163E-01
  7708.2800       0.50913416E-01   0.25091342       0.50913415E-01   0.50913415E-01   0.53659305E-02  -0.83638161E-02
  7708.6460       0.53925319E-01   0.25392532       0.53925318E-01   0.53925318E-01  -0.68681295E-03  -0.20353947E-01
  7708.9820       0.50431274E-01   0.25043127       0.50431272E-01   0.50431272E-01  -0.89225405E-02   0.53591672E-02
  7709.2900       0.48179203E-01   0.24817920       0.48179202E-01   0.48179202E-01   0.27644907E-02   0.27608532E-01
  7709.5960       0.52128671E-01   0.25212867       0.52128670E-01   0.52128670E-01   0.80290982E-02  -0.11886220E-01
  7709.9030       0.53101040E-01   0.25310104       0.53101039E-01   0.53101039E-01  -0.45217620E-02  -0.35818343E-01
  7710.2110       0.49347787E-01   0.24934779       0.49347786E-01   0.49347786E-01  -0.13999183E-01  -0.67204083E-02
  7710.5140       0.44547540E-01   0.24454754       0.44547539E-01   0.44547539E-01  -0.86279315E-02   0.16686003E-01
  7710.8230       0.44067493E-01   0.24406749       0.44067492E-01   0.44067492E-01  -0.37873491E-02   0.27074798E-01
  7711.1080       0.42297854E-01   0.24229785       0.42297853E-01   0.42297853E-01   0.74544986E-02   0.15780059E-01
  7711.4160       0.48488011E-01   0.24848801       0.48488010E-01   0.48488010E-01   0.55702257E-02  -0.21025202E-01
  7711.7250       0.45734684E-01   0.24573468       0.45734682E-01   0.45734682E-01  -0.55180509E-02  -0.12329496E-01
  7712.0290       0.45105446E-01   0.24510544       0.45105445E-01   0.45105445E-01  -0.19877553E-02  -0.85384328E-02
  7712.3330       0.44526128E-01   0.24452613       0.44526127E-01   0.44526127E-01  -0.10709418E-01   0.82040891E-02
  7712.6440       0.38519154E-01   0.23851915       0.38519153E-01   0.38519153E-01   0.30577595E-02   0.47722971E-01
  7712.9530       0.46421939E-01   0.24642194       0.46421938E-01   0.46421938E-01   0.18878824E-01   0.34516225E-01
  7713.2350       0.49676539E-01   0.24967654       0.49676537E-01   0.49676537E-01   0.23456848E-01   0.40109116E-01
  7713.5380       0.60144195E-01   0.26014419       0.60144194E-01   0.60144194E-01   0.42342657E-01   0.60357424E-01
  7713.8530       0.75844301E-01   0.27584430       0.75844299E-01   0.75844299E-01   0.60757737E-01   0.49492875E-01
  7714.1610       0.97996265E-01   0.29799626       0.97996263E-01   0.97996263E-01   0.73176718E-01   0.76001540E-02
  7714.4700       0.12099434       0.32099433       0.12099433       0.12099433       0.65447032E-01  -0.39456508E-01
  7714.7770       0.13831164       0.33831163       0.13831163       0.13831163       0.48871509E-01  -0.46405911E-01
  7715.0770       0.15065934       0.35065934       0.15065934       0.15065934       0.37278644E-01  -0.76355974E-02
  7715.3860       0.16101433       0.36101433       0.16101433       0.16101433       0.44221430E-01   0.74572503E-02
  7715.6700       0.17688265       0.37688265       0.17688265       0.17688265       0.41700793E-01  -0.24942251E-01
  7715.9720       0.18545100       0.38545099       0.18545099       0.18545099       0.29605271E-01  -0.43956546E-01
  7716.1370       0.19070831       0.39070831       0.19070831       0.19070831       0.21173086E-01  -0.19119836E-01
  7716.2550       0.19144298       0.39144297       0.19144297       0.19144297       0.24194357E-01   0.15316138
  7716.3670       0.19627301       0.39627301       0.19627301       0.19627301       0.56400204E-01   0.15877217
  7716.4990       0.20520463       0.40520462       0.20520462       0.20520462       0.62934767E-01  -0.22284003E-01
  7716.6200       0.21219551       0.41219550       0.21219550       0.21219550       0.50762351E-01  -0.42846464E-01
  7716.7330       0.21708302       0.41708301       0.21708301       0.21708301       0.52908694E-01   0.16283493E-01
  7716.8670       0.22526396       0.42526395       0.22526395       0.22526395       0.54784374E-01  -0.48951180E-01
  7716.9880       0.23105303       0.43105303       0.23105303       0.23105303       0.40426143E-01  -0.52525481E-01
  7717.1010       0.23472367       0.43472367       0.23472367       0.23472367       0.42493411E-01   0.53918624E-01
  7717.2330       0.24146392       0.44146391       0.24146391       0.24146391       0.53636206E-01   0.16242070
  7717.3500       0.24807909       0.44807908       0.24807908       0.24807908       0.82936164E-01   0.28030602E-01
  7717.4620       0.26045630       0.46045630       0.26045630       0.26045630       0.60055214E-01  -0.24005272
  7717.5920       0.26261245       0.46261245       0.26261245       0.26261245       0.24843407E-01   0.10116497
  7717.7100       0.26661747       0.46661746       0.26661746       0.26661746       0.85144127E-01   0.32868932
  7717.8420       0.28389848       0.48389848       0.28389848       0.28389848       0.10701574      -0.47011598E-01
  7717.9600       0.29337140       0.49337139       0.29337139       0.29337139       0.73391227E-01  -0.24462045E-01
  7718.0740       0.30092525       0.50092524       0.30092524       0.30092524       0.10134054       0.14891093
  7718.2060       0.31830117       0.51830117       0.31830117       0.31830117       0.11002332      -0.13030334
  7718.3280       0.32887117       0.52887116       0.32887116       0.32887116       0.68243495E-01  -0.20590867
  7718.4410       0.33433840       0.53433839       0.33433839       0.33433839       0.61634780E-01   0.11313700
  7718.5730       0.34397169       0.54397168       0.34397168       0.34397168       0.95962059E-01   0.14693672
  7718.6930       0.35852084       0.55852083       0.35852083       0.35852083       0.98662834E-01   0.20196131E-01
  7718.8050       0.36686147       0.56686146       0.36686146       0.36686146       0.10064756       0.12516505
  7718.9360       0.38297819       0.58297818       0.38297818       0.38297818       0.12907794       0.22674081
  7719.0560       0.39926003       0.59926002       0.39926002       0.39926002       0.15755950      -0.26598899E-01
  7719.1680       0.41953200       0.61953199       0.41953199       0.41953199       0.12290700      -0.25360580
  7719.2990       0.42912643       0.62912642       0.42912642       0.42912642       0.95933295E-01   0.18804253
  7719.4200       0.44370719       0.64370718       0.44370718       0.44370718       0.17029372       0.27170436
  7719.5350       0.46931575       0.66931574       0.46931574       0.46931574       0.16005552      -0.21390543
  7719.6660       0.48308085       0.68308083       0.48308083       0.48308083       0.11767298       0.18105639E-01
  7719.7880       0.49908701       0.69908700       0.49908700       0.49908700       0.16463625       0.27077752
  7719.9010       0.52177037       0.72177035       0.52177035       0.52177035       0.18130569       0.20009078E-01
  7720.0340       0.54368821       0.74368820       0.54368820       0.54368820       0.16955848       0.17426471
  7720.1540       0.56466866       0.76466865       0.56466865       0.56466865       0.22539467       0.14096514
  7720.2670       0.59620517       0.79620516       0.59620516       0.59620516       0.20240336      -0.36305063
  7720.3970       0.61385268       0.81385266       0.61385266       0.61385266       0.13717336      -0.16217589
  7720.5160       0.63036134       0.83036132       0.63036132       0.63036132       0.16202156       0.15093098
  7720.6460       0.65419605       0.85419603       0.65419603       0.65419603       0.17475518       0.27765526
  7720.7660       0.67405013       0.87405012       0.67405012       0.67405012       0.23143538       0.29015564
  7720.8790       0.70812049       0.90812047       0.70812047       0.70812047       0.24236144      -0.15763758
  7721.0130       0.73391341       0.93391339       0.73391339       0.73391339       0.19249890      -0.15666408
  7721.1330       0.75701521       0.95701519       0.75701519       0.75701519       0.20256877       0.38204151E-01
  7721.2460       0.78111193       0.98111191       0.78111191       0.78111191       0.20140046       0.49294040E-01
  7721.3790       0.80655972        1.0065597       0.80655970       0.80655970       0.21469510       0.25116400
  7721.5000       0.83564449        1.0356445       0.83558258       0.83558258       0.26519612       0.19733723
  7721.6120       0.86835042        2.2706680       0.86846187        2.0707795       0.26067467      -0.10191608
  7721.7440       0.89924911        2.2531168       0.89956487        2.0534326       0.24032859      -0.48471901E-01
  7721.8620       0.92843257        2.2375640       0.92893097        2.0380625       0.24855670      -0.12979395
  7721.9740       0.95641715        2.2229212       0.95708891        2.0235930       0.21047599      -0.31306168
  7722.1040       0.97936776        2.2060700       0.98024074        2.0069430       0.17279577      -0.31770337E-01
  7722.2260       0.99996168        2.1903968        1.0010235        1.9914586       0.20246986       0.18433536
  7722.3580        1.0307951        2.1735919        1.0320612        1.9748581       0.21961695      -0.26700951E-01
  7722.4790        1.0555248        2.1583267        1.0569782        1.9597801       0.19571452      -0.26333158
  7722.5930        1.0767880        2.1440658        1.0784179        1.9456957       0.15773403      -0.33391344
  7722.7240        1.0941696        2.1278230        1.0960023        1.9296557       0.11390573      -0.11598330
  7722.8460        1.1056062        2.1128347        1.1076276        1.9148562       0.12839026       0.27589558
  7722.9580        1.1242129        2.0991920        1.1264078        1.9013869       0.17846530       0.19460840
  7723.0510        1.1421915        2.0879486        1.1445303        1.8902874       0.16828498      -0.19037648
  7723.2130        1.1671256        2.0685464        1.1697151        1.8711360       0.12991929      -0.11776225
  7723.4060        1.1883129        2.0457335        1.1912012        1.8486218       0.12647938      -0.43720375E-02
  7723.6030        1.2164526        2.0227844        1.2196457        1.8259776       0.12821420      -0.61022224E-01
  7723.8000        1.2388293        2.0001727        1.2423274        1.8036709       0.10243662      -0.13561724
  7724.0000        1.2571199        1.9775596        1.2609276        1.7813673       0.74374154E-01  -0.18027115
  7724.1980        1.2684302        1.9555104        1.2725444        1.7596246       0.30688707E-01  -0.15703626
  7724.3960        1.2692726        1.9337948        1.2736933        1.7382154       0.12187793E-01  -0.55188328E-01
  7724.5920        1.2732322        1.9126247        1.2779562        1.7173488       0.89445057E-02  -0.47867302E-01
  7724.7890        1.2727878        1.8916712        1.2778167        1.6967002      -0.66240568E-02  -0.97588654E-01
  7725.0080        1.2704766        1.8687568        1.2758445        1.6741247      -0.31652374E-01  -0.38236868E-01
  7725.7230        1.2432245        1.7966834        1.2496991        1.6031580      -0.42337291E-01  -0.10320939E-01
  7726.5070        1.2070130        1.7223676        1.2147011        1.5300557      -0.47123462E-01   0.12561574E-03
  7727.3020        1.1688166        1.6518916        1.1777352        1.4608103      -0.42138944E-01   0.44782212E-02
  7728.0660        1.1413184        1.5886495        1.1514196        1.3987507      -0.40141915E-01   0.84150079E-02
  7728.8300        1.1074797        1.5296609        1.1187635        1.3409447      -0.29280812E-01   0.21013859E-01
  7729.5930        1.0966066        1.4748543        1.1090713        1.2873191      -0.80537528E-02   0.16927536E-01
  7730.3530        1.0952138        1.4242016        1.1088550        1.2378428      -0.35001752E-02   0.39291685E-02
  7731.1470        1.0911673        1.3753306        1.1060374        1.1902008      -0.19478249E-02   0.50782984E-02
  7731.9100        1.0921811        1.3321200        1.1082322        1.1481711       0.44067354E-02  -0.31572161E-02
  7732.6790        1.0979184        1.2921462        1.1151598        1.1093876      -0.67846800E-02  -0.94656602E-02
  7733.4410        1.0817937        1.2559372        1.1002146        1.0743580      -0.10085190E-01   0.28668509E-02
  7734.2140        1.0824377        1.2225204        1.1020550        1.0421377      -0.23840639E-02  -0.16293353E-02
  7734.9760        1.0781342        1.1927054        1.0989310        1.0135022      -0.12586220E-01  -0.87528113E-02
  7735.7750        1.0627906        1.1646230        1.0848241       0.98665654      -0.16047202E-01   0.74025637E-02
  7736.5390        1.0530524        1.1406693        1.0762685       0.96388542      -0.10160130E-02   0.72842325E-02
  7737.3090        1.0612320        1.1192496        1.0856399       0.94365748      -0.48731897E-02  -0.12885489E-01
  7738.0780        1.0455526        1.1004414        1.0711508       0.92603959      -0.20846781E-01  -0.82709018E-02
  7738.8440        1.0292322        1.0841308        1.0560160       0.91091468      -0.17569024E-01   0.68984643E-02
  7739.6160        1.0185314        1.0699962        1.0465102       0.89797503      -0.10236943E-01   0.20478609E-02
  7740.3880        1.0134263        1.0580293        1.0426001       0.88720305      -0.14407127E-01  -0.76790289E-02
  7741.1610       0.99627241        1.0480730        1.0266426       0.87844326      -0.22101043E-01  -0.64728959E-02
  7741.9520       0.97886032        1.0398315        1.0104549       0.87142609      -0.24530736E-01   0.13363748E-03
  7744.4520       0.91554176        1.0249683       0.95100590       0.86043251      -0.21661242E-01   0.16790704E-02
  7746.9690       0.87018587        1.0233073       0.90954592       0.86266741      -0.16106839E-01   0.17311261E-02
  7749.4530       0.83499145        1.0298468       0.87819635       0.87305175      -0.13003880E-01   0.10509931E-02
  7751.9350       0.80560860        1.0396400       0.85265524       0.88668671      -0.10887608E-01   0.10222917E-02
  7754.4550       0.78053164        1.0491867       0.83147884       0.90013395      -0.78903771E-02   0.19458449E-02
  7756.9490       0.76604625        1.0577482       0.82085376       0.91255571      -0.11311412E-02   0.26406592E-02
  7759.4300       0.77490421        1.0654149       0.83355192       0.92406263       0.52469023E-02   0.17960459E-02
  7761.9470       0.79227026        1.0723521       0.85481389       0.93489576       0.78454963E-02   0.12129087E-02
  7764.4680       0.81442982        1.0784775       0.88087555       0.94492326       0.11357536E-01   0.64415946E-03
  7766.9650       0.84926238        1.0837585       0.91957307       0.95406922       0.11077888E-01   0.34745524E-05
  7769.4620       0.86975280        1.0882827       0.94392845       0.96245837       0.11374888E-01   0.27981276E-04
  7771.9870       0.90638707        1.0921140       0.98447102       0.97019795       0.11218410E-01  -0.12414693E-02
  7774.4880       0.92613653        1.0951974        1.0080916       0.97715254       0.51352635E-02  -0.18215073E-02
  7776.9970       0.93211474        1.0976051        1.0179534       0.98344373       0.20926588E-02  -0.66003057E-03
  7780.5620       0.93884734        1.0998955        1.0302040       0.99125221       0.11262379E-02  -0.86665772E-03
  7784.1490       0.94016959        1.1009280        1.0370784       0.99783686      -0.41056772E-02  -0.60118114E-03
  7787.6930       0.90956975        1.1007687        1.0119641        1.0031631      -0.31607848E-02   0.67539816E-03
  7791.2820       0.91762372        1.0994873        1.0255733        1.0074368       0.71193786E-03   0.23599658E-03
  7794.8620       0.91467364        1.0971609        1.0281645        1.0106518      -0.14689254E-02  -0.55142692E-03
  7798.4360       0.90711502        1.0938691        1.0261378        1.0128919      -0.32329703E-02  -0.29979617E-03
  7802.0150       0.89154820        1.0896768        1.0161107        1.0142393      -0.36133674E-02  -0.23722461E-04
  7805.6140       0.88117827        1.0846326        1.0113115        1.0147659      -0.34032501E-02   0.18284307E-03
  7809.2040       0.86708223        1.0788492        1.0027722        1.0145392      -0.22989086E-02   0.48790856E-03
  7812.8090       0.86463762        1.0723620        1.0059075        1.0136320       0.10725195E-03  -0.88450678E-04
  7816.3810       0.86785198        1.0653378        1.0146508        1.0121366      -0.29337191E-02  -0.53693358E-03
  7819.9940       0.84355885        1.0577051       0.99595002        1.0100963      -0.37506158E-02   0.53178330E-04
  7823.6050       0.84075753        1.0496230       0.99873795        1.0076034      -0.25495589E-02  -0.83560957E-04
  7827.2230       0.82512809        1.0411475       0.98870860        1.0047280      -0.43546780E-02   0.83459998E-04
  7830.8140       0.80936466        1.0324376       0.97850347        1.0015764      -0.19478958E-02   0.72355363E-03
  7834.4380       0.81107402        1.0234241       0.98582221       0.99817231       0.86576144E-03  -0.10031334E-03
  7838.0600       0.81563797        1.0142687       0.99599243       0.99462316      -0.26747662E-02  -0.35654515E-03
  7841.6900       0.79167662        1.0050236       0.97764975       0.99099672      -0.17199040E-02   0.80384025E-03
  7845.3200       0.80315146       0.99578697       0.99474326       0.98737878       0.31611141E-02   0.13446331E-02
