# XDI/1.0 Athena/0.9.26
# Element.edge:                  K
# Element.symbol:                Co
# Column.1:                      energy eV
# Column.2:                      norm
# Column.3:                      nbkg
# Column.4:                      flat
# Column.5:                      fbkg
# Column.6:                      nder
# Column.7:                      nsec
# Athena.e0:                     7721.54
# Athena.eshift:                 0
# Athena.rbkg:                   1.0
# Athena.importance:             1
# Athena.standard:               None
# Athena.bkg_kweight:            3
# Athena.edge_step:              1.1928977
# Athena.fixed_step:             no
# Athena.pre_edge_range:         -82.964 -19.904
# Athena.pre_edge_line:          -0.007993 + 0.000215711 * E
# Athena.normalization_range:    45 125.256
# Athena.post_edge_polynomial:   15.590867 - 0.00164997 * E + 0 * E^2 + 0 * E^3
# Athena.spline_range_energy:    0.000 125.180
# Athena.clamps:                 0 24
# Athena.spline_range_k:         0.000 5.732
# Athena.kweight:                2
# Athena.window:                 hanning
# Athena.phase_correction:       no
# Athena.k_range:                .4 5.35
# Athena.dk:                     .5
# Athena.r_range:                .4 5.1
# Athena.dr:                     .5
# Athena.window:                 hanning
# Athena.plot_multiplier:        1
# Athena.y_offset:               0.2
# ///
#------------------------
#   e         norm        nbkg        flat        fbkg        nder        nsec
  7600.0670      -0.21238395      -0.12383950E-01  -0.21238395      -0.21238395       0.12157233E-01  -0.50554433E-03
  7610.6410      -0.83833370E-01   0.11616663      -0.83833371E-01  -0.83833371E-01   0.68116069E-02  -0.37967103E-03
  7624.5560      -0.45574507E-01   0.15442549      -0.45574507E-01  -0.45574507E-01   0.28594689E-02  -0.21192859E-03
  7637.2000      -0.78887367E-02   0.19211126      -0.78887368E-02  -0.78887368E-02   0.11829955E-02  -0.12624723E-03
  7649.6990      -0.15830451E-01   0.18416955      -0.15830451E-01  -0.15830451E-01  -0.31476520E-03   0.10543762E-03
  7662.1990      -0.15757552E-01   0.18424245      -0.15757552E-01  -0.15757552E-01   0.38188304E-02   0.19002062E-04
  7674.7330       0.79770150E-01   0.27977015       0.79770151E-01   0.79770151E-01   0.16093243E-03  -0.29218234E-03
  7687.3310      -0.11712998E-01   0.18828700      -0.11712998E-01  -0.11712998E-01  -0.35242960E-02   0.12289651E-04
  7700.0100      -0.93134805E-02   0.19068652      -0.93134806E-02  -0.93134805E-02   0.47157795E-03   0.10851577E-02
  7700.3880      -0.55556049E-02   0.19444440      -0.55556049E-02  -0.55556049E-02   0.10644607E-01   0.44003639E-02
  7700.7190      -0.17664538E-02   0.19823355      -0.17664538E-02  -0.17664538E-02   0.35914359E-02  -0.26307916E-01
  7701.0710      -0.31026541E-02   0.19689735      -0.31026542E-02  -0.31026541E-02  -0.73236995E-02  -0.25925878E-02
  7701.4340      -0.70028990E-02   0.19299710      -0.70028990E-02  -0.70028990E-02   0.17377357E-02   0.20440288E-01
  7701.7980      -0.18393203E-02   0.19816068      -0.18393203E-02  -0.18393203E-02   0.75363896E-02  -0.62239950E-02
  7702.1550      -0.15691621E-02   0.19843084      -0.15691621E-02  -0.15691621E-02  -0.27497648E-02  -0.20175767E-01
  7702.5150      -0.38109016E-02   0.19618910      -0.38109017E-02  -0.38109016E-02  -0.69296356E-02  -0.13796046E-02
  7702.8790      -0.65862183E-02   0.19341378      -0.65862183E-02  -0.65862183E-02  -0.37485985E-02   0.10089275E-01
  7703.2420      -0.65361328E-02   0.19346387      -0.65361328E-02  -0.65361328E-02   0.40526766E-03   0.78542300E-02
  7703.6000      -0.62940203E-02   0.19370598      -0.62940203E-02  -0.62940203E-02   0.19143013E-02   0.94683348E-02
  7703.9610      -0.51597501E-02   0.19484025      -0.51597501E-02  -0.51597501E-02   0.72130004E-02   0.39249671E-02
  7704.3250      -0.10645950E-02   0.19893541      -0.10645950E-02  -0.10645950E-02   0.47599025E-02  -0.12909059E-01
  7704.6870      -0.17040609E-02   0.19829594      -0.17040609E-02  -0.17040609E-02  -0.21589762E-02  -0.10565193E-01
  7705.0200      -0.25650834E-02   0.19743492      -0.25650834E-02  -0.25650834E-02  -0.25829066E-02   0.33851696E-02
  7705.3810      -0.34965981E-02   0.19650340      -0.34965981E-02  -0.34965981E-02   0.19033158E-03   0.26124080E-01
  7705.7490      -0.24263317E-02   0.19757367      -0.24263317E-02  -0.24263317E-02   0.16461548E-01   0.35289572E-01
  7706.1120       0.85367934E-02   0.20853679       0.85367935E-02   0.85367936E-02   0.25987008E-01   0.18101990E-01
  7706.4710       0.16336288E-01   0.21633629       0.16336289E-01   0.16336289E-01   0.29531185E-01   0.79410308E-02
  7706.8310       0.29769715E-01   0.22976972       0.29769715E-01   0.29769715E-01   0.31696610E-01  -0.34058386E-02
  7707.1960       0.39316330E-01   0.23931633       0.39316331E-01   0.39316331E-01   0.27061952E-01  -0.19690039E-01
  7707.5570       0.49416692E-01   0.24941669       0.49416693E-01   0.49416693E-01   0.17401641E-01  -0.33919008E-01
  7707.9150       0.51828110E-01   0.25182811       0.51828111E-01   0.51828111E-01   0.26741848E-02  -0.23433261E-01
  7708.2800       0.51350128E-01   0.25135013       0.51350128E-01   0.51350128E-01   0.45939382E-03  -0.55899383E-02
  7708.6460       0.52163927E-01   0.25216393       0.52163928E-01   0.52163928E-01  -0.14120601E-02  -0.10754984E-01
  7708.9820       0.50358861E-01   0.25035886       0.50358862E-01   0.50358862E-01  -0.70906049E-02   0.38439618E-02
  7709.2900       0.47597578E-01   0.24759758       0.47597578E-01   0.47597578E-01   0.10634513E-02   0.24156736E-01
  7709.5960       0.51011820E-01   0.25101182       0.51011821E-01   0.51011821E-01   0.77416311E-02  -0.66554918E-02
  7709.9030       0.52343198E-01   0.25234320       0.52343198E-01   0.52343198E-01  -0.30163652E-02  -0.34694537E-01
  7710.2110       0.49156756E-01   0.24915676       0.49156756E-01   0.49156756E-01  -0.13595509E-01  -0.76039043E-02
  7710.5140       0.44036342E-01   0.24403634       0.44036342E-01   0.44036342E-01  -0.76623507E-02   0.22991308E-01
  7710.8230       0.44467397E-01   0.24446740       0.44467398E-01   0.44467398E-01   0.47517150E-03   0.32688651E-01
  7711.1080       0.44318593E-01   0.24431859       0.44318594E-01   0.44318594E-01   0.11754708E-01   0.13055583E-01
  7711.4160       0.51437939E-01   0.25143794       0.51437940E-01   0.51437940E-01   0.82171322E-02  -0.24782799E-01
  7711.7250       0.49388564E-01   0.24938856       0.49388565E-01   0.49388565E-01  -0.35362790E-02  -0.13761516E-01
  7712.0290       0.49270200E-01   0.24927020       0.49270200E-01   0.49270201E-01  -0.21867685E-03  -0.39562185E-02
  7712.3330       0.49255609E-01   0.24925561       0.49255609E-01   0.49255609E-01  -0.59416598E-02   0.12399315E-01
  7712.6440       0.45616079E-01   0.24561608       0.45616080E-01   0.45616080E-01   0.74069016E-02   0.44920977E-01
  7712.9530       0.53847888E-01   0.25384789       0.53847888E-01   0.53847888E-01   0.21909346E-01   0.36271866E-01
  7713.2350       0.58564503E-01   0.25856450       0.58564503E-01   0.58564503E-01   0.28843575E-01   0.39557426E-01
  7713.5380       0.70721379E-01   0.27072138       0.70721379E-01   0.70721379E-01   0.45050440E-01   0.57070410E-01
  7713.8530       0.86405675E-01   0.28640568       0.86405676E-01   0.86405676E-01   0.64113088E-01   0.50074125E-01
  7714.1610       0.11066383       0.31066383       0.11066383       0.11066383       0.76246620E-01   0.45444011E-02
  7714.4700       0.13344984       0.33344984       0.13344984       0.13344984       0.66916984E-01  -0.38645629E-01
  7714.7770       0.15188469       0.35188470       0.15188470       0.15188470       0.52440913E-01  -0.47109616E-01
  7715.0770       0.16528147       0.36528148       0.16528148       0.16528148       0.38321447E-01  -0.10642136E-01
  7715.3860       0.17522246       0.37522246       0.17522246       0.17522246       0.45959852E-01   0.19836181E-01
  7715.6700       0.19253567       0.39253567       0.19253567       0.19253567       0.50084302E-01  -0.25958706E-01
  7715.9720       0.20457186       0.40457186       0.20457186       0.20457186       0.30748050E-01  -0.79269885E-01
  7716.1370       0.20689500       0.40689501       0.20689501       0.20689501       0.13065266E-01  -0.38113829E-02
  7716.2550       0.20826933       0.40826933       0.20826933       0.20826933       0.29669428E-01   0.20624426
  7716.3670       0.21371897       0.41371898       0.21371898       0.21371898       0.60501445E-01   0.15098214
  7716.4990       0.22303168       0.42303168       0.22303168       0.22303168       0.66509071E-01   0.45532239E-02
  7716.6200       0.23054577       0.43054577       0.23054577       0.23054577       0.61653410E-01  -0.57928535E-01
  7716.7330       0.23745858       0.43745858       0.23745858       0.23745858       0.52953793E-01  -0.25162426E-01
  7716.8670       0.24362536       0.44362536       0.24362536       0.24362536       0.55438291E-01  -0.34588208E-01
  7716.9880       0.25159534       0.45159534       0.25159534       0.25159534       0.44133800E-01  -0.98432612E-01
  7717.1010       0.25395266       0.45395267       0.25395267       0.25395267       0.32405060E-01   0.79625542E-01
  7717.2330       0.25953458       0.45953458       0.25953458       0.25953458       0.63642058E-01   0.25483652
  7717.3500       0.26979954       0.46979954       0.26979954       0.26979954       0.95859353E-01  -0.17370223E-01
  7717.4620       0.28148637       0.48148638       0.28148638       0.28148638       0.59664277E-01  -0.19698610
  7717.5920       0.28423829       0.48423829       0.28423829       0.28423829       0.48188715E-01   0.16026382
  7717.7100       0.29343717       0.49343718       0.29343718       0.29343718       0.99409704E-01   0.19330288
  7717.8420       0.30909072       0.50909072       0.30909072       0.30909072       0.96514435E-01  -0.10394995
  7717.9600       0.31756578       0.51756579       0.31756579       0.31756579       0.73422217E-01   0.67683734E-01
  7718.0740       0.32612467       0.52612468       0.32612468       0.32612468       0.11221706       0.19936711
  7718.2060       0.34517118       0.54517118       0.34517118       0.34517118       0.12246652      -0.16711011
  7718.3280       0.35723117       0.55723117       0.35723117       0.35723117       0.69771094E-01  -0.20549629
  7718.4410       0.36156739       0.56156739       0.36156739       0.36156739       0.74174897E-01   0.14151768
  7718.5730       0.37540402       0.57540402       0.37540402       0.37540402       0.10444292       0.59636369E-01
  7718.6930       0.38788700       0.58788701       0.38788701       0.38788701       0.89203262E-01  -0.22554394E-01
  7718.8050       0.39609918       0.59609918       0.39609918       0.39609918       0.99210305E-01   0.21817058
  7718.9360       0.41199511       0.61199511       0.41199511       0.41199511       0.14221871       0.28543986
  7719.0560       0.43179607       0.63179608       0.43179608       0.43179608       0.17085571      -0.66478097E-01
  7719.1680       0.45163363       0.65163364       0.45163364       0.45163364       0.12679579      -0.27923875
  7719.2990       0.46260745       0.66260746       0.46260746       0.46260746       0.10300069       0.12938810
  7719.4200       0.47758981       0.67758981       0.47758981       0.47758981       0.15940159       0.19055931
  7719.5350       0.50022623       0.70022623       0.50022623       0.50022623       0.14797269      -0.10958530
  7719.6660       0.51399109       0.71399109       0.51399109       0.51399109       0.13244361       0.14610119
  7719.7880       0.53373446       0.73373447       0.53373447       0.53373447       0.18493629       0.23243971
  7719.9010       0.55745112       0.75745112       0.55745112       0.55745112       0.18706694      -0.59455442E-01
  7720.0340       0.57975293       0.77975293       0.57975293       0.57975293       0.17031025       0.12522385
  7720.1540       0.60053961       0.80053962       0.60053962       0.60053962       0.21874858       0.71923980E-01
  7720.2670       0.63072135       0.83072135       0.63072135       0.63072135       0.18706854      -0.31271522
  7720.3970       0.64599726       0.84599727       0.64599727       0.64599727       0.14275878      -0.70327693E-01
  7720.5160       0.66626828       0.86626829       0.66626829       0.66626829       0.16955694       0.15740777
  7720.6460       0.68821694       0.88821695       0.68821695       0.68821695       0.18195331       0.30074129
  7720.7660       0.71175661       0.91175662       0.71175662       0.71175662       0.24474226       0.14298268
  7720.8790       0.74524189       0.94524190       0.74524190       0.74524190       0.21526828      -0.24749343
  7721.0130       0.76492787       0.96492788       0.76492788       0.76492788       0.18361139      -0.15364974E-01
  7721.1330       0.79187918       0.99187919       0.79187919       0.79187919       0.21136557       0.30316890E-01
  7721.2460       0.81417605        1.0141761       0.81417606       0.81417606       0.19067522       0.21378268E-01
  7721.3790       0.83878529        1.0387853       0.83878530       0.83878530       0.21662463       0.26608946
  7721.5000       0.86919871        1.0691987       0.86913615       0.86913615       0.25826194       0.17825743E-01
  7721.6120       0.89896032        2.2323022       0.89907293        2.0324148       0.22077802      -0.15737527
  7721.7440       0.92306855        2.2153298       0.92338760        2.0156488       0.21986238       0.14483225
  7721.8620       0.95392592        2.2002899       0.95442952        2.0007935       0.25698609      -0.87869561E-01
  7721.9740       0.98217535        2.1861300       0.98285412        1.9868087       0.19965238      -0.48716601
  7722.1040        1.0022418        2.1698344        1.0031239        1.9707165       0.13909191      -0.30954450E-01
  7722.2260        1.0172265        2.1546780        1.0182994        1.9557509       0.19185186       0.28635216
  7722.3580        1.0509722        2.1384273        1.0522515        1.9397067       0.21182536      -0.11807357
  7722.4790        1.0708183        2.1236654        1.0722869        1.9251340       0.16197925      -0.30120806
  7722.5930        1.0890373        2.1098748        1.0906842        1.9115217       0.14104147      -0.26238104
  7722.7240        1.1053735        2.0941675        1.1072253        1.8960193       0.97695892E-01  -0.13302325
  7722.8460        1.1137543        2.0796734        1.1157969        1.8817159       0.10738659       0.22878567
  7722.9580        1.1305019        2.0664805        1.1327197        1.8686982       0.15123174       0.18552871
  7723.0510        1.1447569        2.0556078        1.1471201        1.8579710       0.14541997      -0.15274779
  7723.2130        1.1675840        2.0368452        1.1702006        1.8394618       0.11228105      -0.11433558
  7723.4060        1.1846166        2.0147844        1.1875350        1.8177028       0.10483084       0.11016843E-01
  7723.6030        1.2084681        1.9925918        1.2116946        1.7958183       0.11657762      -0.37080938E-01
  7723.8000        1.2305482        1.9707256        1.2340828        1.7742602       0.90220950E-01  -0.15811138
  7724.0000        1.2442858        1.9488578        1.2481332        1.7527053       0.53807401E-01  -0.16416145
  7724.1980        1.2519636        1.9275354        1.2561207        1.7316925       0.24884694E-01  -0.11302151
  7724.3960        1.2541401        1.9065355        1.2586069        1.7110023       0.90508818E-02  -0.38750757E-01
  7724.5920        1.2555296        1.8860632        1.2603029        1.6908365       0.96168961E-02  -0.49235438E-01
  7724.7890        1.2579196        1.8658002        1.2630010        1.6708816      -0.10298645E-01  -0.99449231E-01
  7725.0080        1.2512454        1.8436409        1.2566693        1.6490649      -0.31753984E-01  -0.28743398E-01
  7725.7230        1.2282613        1.7739423        1.2348035        1.5804845      -0.37144979E-01  -0.69890780E-02
  7726.5070        1.1955650        1.7020747        1.2033334        1.5098431      -0.42230612E-01   0.70760772E-03
  7727.3020        1.1615792        1.6339198        1.1705909        1.4429315      -0.36027667E-01   0.45885812E-02
  7728.0660        1.1393979        1.5727598        1.1496045        1.3829664      -0.35077014E-01   0.52166249E-02
  7728.8300        1.1079815        1.5157127        1.1193830        1.3271142      -0.28056664E-01   0.15913498E-01
  7729.5930        1.0965554        1.4627092        1.1091502        1.2753041      -0.10777102E-01   0.14679867E-01
  7730.3530        1.0915680        1.4137222        1.1053515        1.2275057      -0.56992263E-02   0.44806148E-02
  7731.1470        1.0876988        1.3664576        1.1027241        1.1814829      -0.38142266E-02   0.43497258E-02
  7731.9100        1.0856292        1.3246664        1.1018479        1.1408850       0.10732968E-02  -0.25883477E-02
  7732.6790        1.0893431        1.2860048        1.1067644        1.1034261      -0.77795753E-02  -0.57592155E-02
  7733.4410        1.0737187        1.2509835        1.0923318        1.0695966      -0.77440621E-02   0.49486366E-02
  7734.2140        1.0774559        1.2186619        1.0972780        1.0384839      -0.18341811E-03  -0.28416957E-02
  7734.9760        1.0734372        1.1898229        1.0944510        1.0108367      -0.12106065E-01  -0.88838562E-02
  7735.7750        1.0585584        1.1626586        1.0808218       0.98492207      -0.14051118E-01   0.78569287E-02
  7736.5390        1.0514753        1.1394868        1.0749336       0.96294518       0.17431461E-03   0.56649969E-02
  7737.3090        1.0588258        1.1187649        1.0834884       0.94342755      -0.53610123E-02  -0.14135989E-01
  7738.0780        1.0432247        1.1005681        1.0690900       0.92643342      -0.21580973E-01  -0.81398430E-02
  7738.8440        1.0256990        1.0847861        1.0527623       0.91184949      -0.17855671E-01   0.75341499E-02
  7739.6160        1.0157627        1.0711079        1.0440334       0.89937867      -0.99934507E-02   0.17006933E-02
  7740.3880        1.0102691        1.0595255        1.0397473       0.88900365      -0.15229801E-01  -0.79984796E-02
  7741.1610       0.99223261        1.0498870        1.0229197       0.88057411      -0.22351102E-01  -0.54090965E-02
  7741.9520       0.97531197        1.0419060        1.0072362       0.87383027      -0.23689628E-01   0.31179996E-03
  7744.4520       0.91427005        1.0274948       0.95010428       0.86332901      -0.21324968E-01   0.14897933E-02
  7746.9690       0.86832460        1.0258459       0.90809541       0.86561674      -0.16215335E-01   0.18543640E-02
  7749.4530       0.83317716        1.0321238       0.87683293       0.87577953      -0.12051294E-01   0.12146769E-02
  7751.9350       0.80847788        1.0415442       0.85601548       0.88908176      -0.10183249E-01   0.88705407E-03
  7754.4550       0.78224055        1.0507215       0.83371942       0.90220034      -0.76142494E-02   0.19105271E-02
  7756.9490       0.77030003        1.0589426       0.82567950       0.91432210      -0.60386593E-03   0.26478865E-02
  7759.4300       0.77923632        1.0662949       0.83849606       0.92555460       0.55589860E-02   0.16579109E-02
  7761.9470       0.79808385        1.0729366       0.86128016       0.93613286       0.76823728E-02   0.10891559E-02
  7764.4680       0.81794011        1.0787888       0.88507925       0.94592792       0.11046154E-01   0.56800875E-03
  7766.9650       0.85351344        1.0838208       0.92455788       0.95486521       0.10532641E-01  -0.74586258E-04
  7769.4620       0.87054012        1.0881165       0.94548985       0.96306622       0.10673670E-01   0.53231434E-04
  7771.9870       0.90711661        1.0917367       0.98601543       0.97063548       0.10799969E-01  -0.12323763E-02
  7774.4880       0.92482076        1.0946298        1.0076311       0.97744017       0.44797468E-02  -0.17830268E-02
  7776.9970       0.92956015        1.0968644        1.0162946       0.98359885       0.18670045E-02  -0.55483265E-03
  7780.5620       0.93616095        1.0989379        1.0284710       0.99124796       0.11096933E-02  -0.83050373E-03
  7784.1490       0.93749667        1.0997840        1.0354168       0.99770406      -0.40727582E-02  -0.56563444E-03
  7787.6930       0.90711811        1.0994690        1.0105810        1.0029319      -0.29238459E-02   0.68928176E-03
  7791.2820       0.91664088        1.0980562        1.0257170        1.0071322       0.84388860E-03   0.16829839E-03
  7794.8620       0.91316795        1.0956224        1.0278431        1.0102975      -0.17173147E-02  -0.59156509E-03
  7798.4360       0.90435521        1.0922440        1.0246201        1.0125089      -0.33881681E-02  -0.27121583E-03
  7802.0150       0.88893238        1.0879831        1.0147948        1.0138455      -0.36573216E-02   0.20599992E-04
  7805.6140       0.87810296        1.0828854        1.0095942        1.0143766      -0.32403013E-02   0.17846242E-03
  7809.2040       0.86563785        1.0770611        1.0027438        1.0141671      -0.23743552E-02   0.45076128E-03
  7812.8090       0.86101947        1.0705429        1.0037637        1.0132871       0.29260898E-05  -0.24607246E-04
  7816.3810       0.86565885        1.0634949        1.0139896        1.0118257      -0.25509614E-02  -0.48341931E-03
  7819.9940       0.84269081        1.0558426       0.99667230        1.0098241      -0.34704417E-02   0.33442068E-04
  7823.6050       0.84058838        1.0477423        1.0002175        1.0073714      -0.23093759E-02  -0.15973574E-03
  7827.2230       0.82599633        1.0392474       0.99128394        1.0045350      -0.46251713E-02   0.17887697E-04
  7830.8140       0.80724552        1.0305142       0.97814943        1.0014181      -0.21804235E-02   0.78220547E-03
  7834.4380       0.81026458        1.0214703       0.98683640       0.99804209       0.10184412E-02  -0.75952471E-04
  7838.0600       0.81462515        1.0122746       0.99686176       0.99451122      -0.27307751E-02  -0.40893921E-03
  7841.6900       0.79046100        1.0029765       0.97837490       0.99089041      -0.19471860E-02   0.75663832E-03
  7845.3200       0.80048858       0.99367137       0.99407978       0.98726257       0.27624191E-02   0.12974119E-02
