# XDI/1.0 Athena/0.9.26
# Element.edge:                  K
# Element.symbol:                Co
# Column.1:                      energy eV
# Column.2:                      norm
# Column.3:                      nbkg
# Column.4:                      flat
# Column.5:                      fbkg
# Column.6:                      nder
# Column.7:                      nsec
# Athena.e0:                     7721.54
# Athena.eshift:                 0
# Athena.rbkg:                   1.0
# Athena.importance:             1
# Athena.standard:               None
# Athena.bkg_kweight:            3
# Athena.edge_step:              1.1936430
# Athena.fixed_step:             no
# Athena.pre_edge_range:         -82.964 -19.904
# Athena.pre_edge_line:          -0.021369 + 0.000217402 * E
# Athena.normalization_range:    45 125.256
# Athena.post_edge_polynomial:   15.630324 - 0.00165503 * E + 0 * E^2 + 0 * E^3
# Athena.spline_range_energy:    0.000 125.180
# Athena.clamps:                 0 24
# Athena.spline_range_k:         0.000 5.732
# Athena.kweight:                2
# Athena.window:                 hanning
# Athena.phase_correction:       no
# Athena.k_range:                .4 5.35
# Athena.dk:                     .5
# Athena.r_range:                .4 5.1
# Athena.dr:                     .5
# Athena.window:                 hanning
# Athena.plot_multiplier:        1
# Athena.y_offset:               0.2
# ///
#------------------------
#   e         norm        nbkg        flat        fbkg        nder        nsec
  7600.0670      -0.21140539      -0.11405398E-01  -0.21140540      -0.21140540       0.12079682E-01  -0.50187639E-03
  7610.6410      -0.83674838E-01   0.11632516      -0.83674840E-01  -0.83674840E-01   0.67728409E-02  -0.37638046E-03
  7624.5560      -0.45545293E-01   0.15445471      -0.45545294E-01  -0.45545294E-01   0.28625008E-02  -0.21006563E-03
  7637.2000      -0.76496804E-02   0.19235032      -0.76496806E-02  -0.76496806E-02   0.11937078E-02  -0.12795850E-03
  7649.6990      -0.15531897E-01   0.18446810      -0.15531897E-01  -0.15531897E-01  -0.35475989E-03   0.10384185E-03
  7662.1990      -0.16518323E-01   0.18348168      -0.16518323E-01  -0.16518323E-01   0.37896502E-02   0.22956058E-04
  7674.7330       0.79338207E-01   0.27933821       0.79338209E-01   0.79338209E-01   0.21992207E-03  -0.28835312E-03
  7687.3310      -0.10991241E-01   0.18900876      -0.10991242E-01  -0.10991242E-01  -0.34572404E-02   0.44799453E-05
  7700.0100      -0.80504587E-02   0.19194954      -0.80504588E-02  -0.80504588E-02   0.33316165E-03   0.86963342E-03
  7700.3880      -0.66411497E-02   0.19335885      -0.66411498E-02  -0.66411498E-02   0.78975632E-02   0.74405486E-02
  7700.7190      -0.24510864E-02   0.19754891      -0.24510864E-02  -0.24510864E-02   0.56085106E-02  -0.19891482E-01
  7701.0710      -0.28105369E-02   0.19718946      -0.28105370E-02  -0.28105370E-02  -0.56883188E-02  -0.66225795E-02
  7701.4340      -0.65182343E-02   0.19348177      -0.65182344E-02  -0.65182344E-02   0.87336626E-03   0.15091183E-01
  7701.7980      -0.21755997E-02   0.19782440      -0.21755997E-02  -0.21755997E-02   0.52829713E-02  -0.58371127E-02
  7702.1550      -0.27092120E-02   0.19729079      -0.27092121E-02  -0.27092120E-02  -0.33351920E-02  -0.15333692E-01
  7702.5150      -0.45669323E-02   0.19543307      -0.45669324E-02  -0.45669324E-02  -0.57112860E-02   0.14639469E-02
  7702.8790      -0.68441831E-02   0.19315582      -0.68441832E-02  -0.68441832E-02  -0.22752945E-02   0.84462816E-02
  7703.2420      -0.62210714E-02   0.19377893      -0.62210715E-02  -0.62210715E-02   0.42916073E-03   0.64051855E-02
  7703.6000      -0.65347582E-02   0.19346524      -0.65347583E-02  -0.65347583E-02   0.23428443E-02   0.92053385E-02
  7703.9610      -0.45365664E-02   0.19546343      -0.45365664E-02  -0.45365664E-02   0.70477991E-02   0.39218757E-02
  7704.3250      -0.14251038E-02   0.19857490      -0.14251039E-02  -0.14251039E-02   0.51862041E-02  -0.11523165E-01
  7704.6870      -0.77138217E-03   0.19922862      -0.77138218E-03  -0.77138217E-03  -0.13180190E-02  -0.15237890E-01
  7705.0200      -0.23411270E-02   0.19765887      -0.23411271E-02  -0.23411271E-02  -0.54041293E-02   0.18669612E-02
  7705.3810      -0.45218479E-02   0.19547815      -0.45218480E-02  -0.45218480E-02  -0.22347887E-04   0.31329846E-01
  7705.7490      -0.23574186E-02   0.19764258      -0.23574187E-02  -0.23574187E-02   0.17435328E-01   0.36078329E-01
  7706.1120       0.82233770E-02   0.20822338       0.82233772E-02   0.82233772E-02   0.26350911E-01   0.15445893E-01
  7706.4710       0.16667939E-01   0.21666794       0.16667939E-01   0.16667939E-01   0.28587263E-01   0.85767077E-02
  7706.8310       0.28777619E-01   0.22877762       0.28777620E-01   0.28777620E-01   0.32517564E-01  -0.28822341E-02
  7707.1960       0.40243173E-01   0.24024317       0.40243174E-01   0.40243174E-01   0.26497643E-01  -0.22155520E-01
  7707.5570       0.48014908E-01   0.24801491       0.48014909E-01   0.48014909E-01   0.16432656E-01  -0.30272083E-01
  7707.9150       0.52058253E-01   0.25205825       0.52058254E-01   0.52058254E-01   0.47320157E-02  -0.20971028E-01
  7708.2800       0.51436156E-01   0.25143616       0.51436157E-01   0.51436157E-01   0.12706034E-02  -0.87680764E-02
  7708.6460       0.52987064E-01   0.25298706       0.52987065E-01   0.52987065E-01  -0.16774481E-02  -0.13135585E-01
  7708.9820       0.50258587E-01   0.25025859       0.50258588E-01   0.50258588E-01  -0.79505771E-02   0.77671049E-02
  7709.2900       0.47866892E-01   0.24786689       0.47866893E-01   0.47866893E-01   0.33245675E-02   0.25263588E-01
  7709.5960       0.52299871E-01   0.25229987       0.52299872E-01   0.52299872E-01   0.75612660E-02  -0.13120732E-01
  7709.9030       0.52501948E-01   0.25250195       0.52501949E-01   0.52501949E-01  -0.47184410E-02  -0.34127994E-01
  7710.2110       0.49398030E-01   0.24939803       0.49398031E-01   0.49398031E-01  -0.13427450E-01  -0.74066954E-02
  7710.5140       0.44297776E-01   0.24429778       0.44297777E-01   0.44297777E-01  -0.92439318E-02   0.22134283E-01
  7710.8230       0.43740744E-01   0.24374074       0.43740745E-01   0.43740745E-01   0.11873077E-03   0.33979128E-01
  7711.1080       0.44368302E-01   0.24436830       0.44368303E-01   0.44368303E-01   0.10939670E-01   0.12467094E-01
  7711.4160       0.50227969E-01   0.25022797       0.50227969E-01   0.50227969E-01   0.75117174E-02  -0.23149137E-01
  7711.7250       0.49003032E-01   0.24900303       0.49003033E-01   0.49003033E-01  -0.33433471E-02  -0.12691048E-01
  7712.0290       0.48178497E-01   0.24817850       0.48178498E-01   0.48178498E-01  -0.26789487E-03  -0.82268231E-02
  7712.3330       0.48840152E-01   0.24884015       0.48840152E-01   0.48840152E-01  -0.83452556E-02   0.88742435E-02
  7712.6440       0.43046165E-01   0.24304617       0.43046165E-01   0.43046165E-01   0.51897649E-02   0.50283701E-01
  7712.9530       0.52057806E-01   0.25205781       0.52057807E-01   0.52057807E-01   0.22830639E-01   0.32952135E-01
  7713.2350       0.56539072E-01   0.25653907       0.56539073E-01   0.56539073E-01   0.24664477E-01   0.39647599E-01
  7713.5380       0.66486525E-01   0.26648653       0.66486526E-01   0.66486526E-01   0.46024485E-01   0.65282403E-01
  7713.8530       0.84982204E-01   0.28498221       0.84982205E-01   0.84982205E-01   0.65009002E-01   0.43695148E-01
  7714.1610       0.10698713       0.30698713       0.10698713       0.10698713       0.73246562E-01   0.51435914E-02
  7714.4700       0.13017533       0.33017533       0.13017533       0.13017533       0.68182598E-01  -0.36452717E-01
  7714.7770       0.14898761       0.34898762       0.14898762       0.14898762       0.50791689E-01  -0.49105409E-01
  7715.0770       0.16100589       0.36100589       0.16100589       0.16100589       0.38375615E-01  -0.68912371E-02
  7715.3860       0.17235836       0.37235837       0.17235837       0.17235837       0.46594925E-01   0.10711955E-01
  7715.6700       0.18863668       0.38863668       0.18863668       0.18863668       0.44727804E-01  -0.29800413E-01
  7715.9720       0.19856886       0.39856886       0.19856886       0.19856886       0.29131883E-01  -0.51762805E-01
  7716.1370       0.20224127       0.40224127       0.20224127       0.20224127       0.20554574E-01   0.17671991E-01
  7716.2550       0.20438580       0.40438580       0.20438580       0.20438580       0.34133056E-01   0.14911849
  7716.3670       0.21009187       0.41009187       0.21009187       0.21009187       0.54851826E-01   0.13854453
  7716.4990       0.21776965       0.41776965       0.21776965       0.21776965       0.67937921E-01   0.20742902E-01
  7716.6200       0.22728016       0.42728017       0.22728017       0.22728017       0.60099780E-01  -0.55539845E-01
  7716.7330       0.23183299       0.43183300       0.23183300       0.23183300       0.54941597E-01  -0.19021099E-01
  7716.8670       0.24085074       0.44085074       0.24085074       0.24085074       0.55401569E-01  -0.18579027E-01
  7716.9880       0.24596039       0.44596040       0.24596040       0.24596040       0.50203945E-01  -0.34910781E-01
  7717.1010       0.25259846       0.45259847       0.25259847       0.25259847       0.47232446E-01  -0.53827687E-01
  7717.2330       0.25753234       0.45753235       0.25753235       0.25753235       0.37016162E-01   0.12212438
  7717.3500       0.26181549       0.46181549       0.26181549       0.26181549       0.77641416E-01   0.18436112
  7717.4620       0.27531223       0.47531223       0.27531223       0.27531223       0.79234858E-01  -0.13260699
  7717.5920       0.28099032       0.48099033       0.28099033       0.28099033       0.45550524E-01   0.52182561E-01
  7717.7100       0.28660876       0.48660876       0.28660876       0.28660876       0.92176133E-01   0.26177171
  7717.8420       0.30403436       0.50403436       0.30403436       0.30403436       0.11099345      -0.99348273E-01
  7717.9600       0.31435712       0.51435713       0.31435713       0.31435713       0.67339065E-01  -0.83684283E-01
  7718.0740       0.31965702       0.51965702       0.31965702       0.31965702       0.91578697E-01   0.24765747
  7718.2060       0.33688548       0.53688549       0.33688549       0.33688549       0.12826280       0.12128867E-02
  7718.3280       0.35223577       0.55223578       0.35223578       0.35223578       0.91886770E-01  -0.29830822
  7718.4410       0.35847887       0.55847888       0.35847888       0.35847888       0.58160370E-01  -0.50070830E-01
  7718.5730       0.36648506       0.56648507       0.36648507       0.36648507       0.79619417E-01   0.16316999
  7718.6930       0.37854296       0.57854297       0.37854297       0.37854297       0.99279208E-01   0.15692241
  7718.8050       0.38951784       0.58951784       0.38951784       0.38951784       0.11602542       0.11681295
  7718.9360       0.40673714       0.60673715       0.40673715       0.40673715       0.12766475       0.13970353
  7719.0560       0.42156169       0.62156170       0.42156170       0.42156170       0.15109100       0.10635732E-01
  7719.1680       0.44179025       0.64179026       0.44179026       0.44179026       0.13013224      -0.17450770
  7719.2990       0.45318383       0.65318383       0.45318383       0.45318383       0.10868563       0.21766522
  7719.4200       0.46917903       0.66917904       0.46917904       0.46917904       0.18498388       0.19665356
  7719.5350       0.49684002       0.69684003       0.49684003       0.49684003       0.15509587      -0.29661313
  7719.6660       0.50733261       0.70733262       0.50733262       0.50733262       0.11201705       0.77085137E-01
  7719.7880       0.52518033       0.72518034       0.52518034       0.52518034       0.17459841       0.29938250
  7719.9010       0.54836324       0.74836325       0.54836325       0.54836325       0.18237194      -0.20165719E-01
  7720.0340       0.57004383       0.77004384       0.57004384       0.57004384       0.16963764       0.13635181
  7720.1540       0.59128156       0.79128157       0.59128157       0.59128157       0.21686894       0.13546201
  7720.2670       0.62057429       0.82057431       0.62057431       0.62057431       0.20120029      -0.26860751
  7720.3970       0.64017323       0.84017325       0.64017325       0.64017325       0.15159732      -0.13326448
  7720.5160       0.65832203       0.85832204       0.65832204       0.65832204       0.16801743       0.10644864
  7720.6460       0.68200958       0.88200959       0.68200959       0.68200959       0.17810303       0.21923599
  7720.7660       0.70284778       0.90284780       0.70284780       0.70284780       0.22282643       0.23048557
  7720.8790       0.73392813       0.93392815       0.73392815       0.73392815       0.23180617      -0.13181733
  7721.0130       0.76010391       0.96010392       0.76010392       0.76010392       0.19026755      -0.15670811
  7721.1330       0.78225609       0.98225611       0.78225611       0.78225611       0.19200231       0.33969242E-01
  7721.2460       0.80484044        1.0048405       0.80484046       0.80484046       0.19818238       0.10706454
  7721.3790       0.83100896        1.0310090       0.83100897       0.83100897       0.21834018       0.24224356
  7721.5000       0.86029885        1.0602989       0.86023610       0.86023610       0.25971225       0.10399931
  7721.6120       0.89152191        2.2507092       0.89163486        2.0508221       0.24257202      -0.16903369
  7721.7440       0.91948642        2.2334243       0.91980643        2.0337443       0.21846803      -0.57616460E-03
  7721.8620       0.94613892        2.2181077       0.94664403        2.0186128       0.24242798      -0.91512876E-01
  7721.9740       0.97524486        2.2036874       0.97592566        2.0043682       0.19742007      -0.35940368
  7722.1040       0.99391458        2.1870924       0.99479931        1.9879771       0.15545229       0.89196079E-02
  7722.2260        1.0144188        2.1716576        1.0154949        1.9727337       0.19966781       0.22983527
  7722.3580        1.0446302        2.1551086        1.0459134        1.9563918       0.21383045      -0.82146404E-01
  7722.4790        1.0685179        2.1400759        1.0699909        1.9415489       0.17888477      -0.32972621
  7722.5930        1.0866681        2.1260325        1.0883199        1.9276843       0.13634479      -0.32946718
  7722.7240        1.1019224        2.1100374        1.1037797        1.9118947       0.98165310E-01  -0.83318951E-01
  7722.8460        1.1115039        2.0952779        1.1135526        1.8973266       0.11526509       0.26529609
  7722.9580        1.1288944        2.0818437        1.1311188        1.8840680       0.16024459       0.19565247
  7723.0510        1.1443541        2.0707721        1.1467243        1.8731424       0.15537385      -0.18661981
  7723.2130        1.1685148        2.0516667        1.1711392        1.8542911       0.11265654      -0.14291704
  7723.4060        1.1843472        2.0292032        1.1872743        1.8321303       0.10463830       0.19992320E-01
  7723.6030        1.2093237        2.0066059        1.2125599        1.8098420       0.12045355      -0.24168034E-01
  7723.8000        1.2318059        1.9843414        1.2353511        1.7878865       0.95116095E-01  -0.15124950
  7724.0000        1.2470848        1.9620758        1.2509437        1.7659347       0.60407495E-01  -0.18833936
  7724.1980        1.2558480        1.9403659        1.2600176        1.7445354       0.20157031E-01  -0.15349064
  7724.3960        1.2550670        1.9189849        1.2595471        1.7234650      -0.37479970E-03  -0.33831520E-01
  7724.5920        1.2557004        1.8981415        1.2604880        1.7029290       0.68274125E-02   0.10086762E-02
  7724.7890        1.2577502        1.8775117        1.2628468        1.6826083       0.21610056E-04  -0.86573171E-01
  7725.0080        1.2557094        1.8549518        1.2611495        1.6603919      -0.29187027E-01  -0.41260596E-01
  7725.7230        1.2304895        1.7839971        1.2370512        1.5905588      -0.38515787E-01  -0.86649056E-02
  7726.5070        1.1979742        1.7108413        1.2057658        1.5186329      -0.42175720E-01   0.25852717E-03
  7727.3020        1.1638940        1.6414724        1.1729327        1.4505110      -0.38107573E-01   0.28926581E-02
  7728.0660        1.1385645        1.5792304        1.1488016        1.3894675      -0.37666066E-01   0.64138020E-02
  7728.8300        1.1063403        1.5211815        1.1177759        1.3326171      -0.28307283E-01   0.19143476E-01
  7729.5930        1.0953393        1.4672547        1.1079718        1.2798872      -0.84339784E-02   0.15749029E-01
  7730.3530        1.0934953        1.4174220        1.1073200        1.2312467      -0.43215114E-02   0.31682499E-02
  7731.1470        1.0886236        1.3693497        1.1036938        1.1844199      -0.35105181E-02   0.40627130E-02
  7731.9100        1.0880294        1.3268526        1.1042965        1.1431197       0.20041327E-02  -0.27718650E-02
  7732.6790        1.0916940        1.2875464        1.1091674        1.1050198      -0.77570153E-02  -0.69139340E-02
  7733.4410        1.0761535        1.2519496        1.0948222        1.0706183      -0.85811003E-02   0.44264975E-02
  7734.2140        1.0785220        1.2191058        1.0984033        1.0389871      -0.96234159E-03  -0.25416610E-02
  7734.9760        1.0746763        1.1898101        1.0957529        1.0108867      -0.12482550E-01  -0.96527620E-02
  7735.7750        1.0590367        1.1622256        1.0813667       0.98455560      -0.16030303E-01   0.83912007E-02
  7736.5390        1.0496209        1.1387054        1.0731494       0.96223388       0.63289681E-03   0.77472068E-02
  7737.3090        1.0600076        1.1176823        1.0847439       0.94241864      -0.41460879E-02  -0.14393148E-01
  7738.0780        1.0432401        1.0992319        1.0691827       0.92517452      -0.21518158E-01  -0.87369603E-02
  7738.8440        1.0269772        1.0832414        1.0541215       0.91038566      -0.17557322E-01   0.69255864E-02
  7739.6160        1.0162369        1.0693948        1.0445922       0.89775001      -0.10866606E-01   0.18896771E-02
  7740.3880        1.0101992        1.0576829        1.0397654       0.88724914      -0.14639661E-01  -0.68556442E-02
  7741.1610       0.99361863        1.0479510        1.0243975       0.87872979      -0.21458576E-01  -0.61784727E-02
  7741.9520       0.97663796        1.0399089        1.0086576       0.87192855      -0.24302792E-01  -0.40417487E-04
  7744.4520       0.91363814        1.0254993       0.94957948       0.86144066      -0.21591590E-01   0.16770138E-02
  7746.9690       0.86831295        1.0240750       0.90820264       0.86396471      -0.15889213E-01   0.17857061E-02
  7749.4530       0.83417618        1.0306971       0.87796244       0.87448332      -0.12661274E-01   0.11043510E-02
  7751.9350       0.80543707        1.0404874       0.85311676       0.88816710      -0.10405007E-01   0.11002859E-02
  7754.4550       0.78213034        1.0499942       0.83376308       0.90162695      -0.71576432E-02   0.18914764E-02
  7756.9490       0.76954865        1.0584885       0.82509364       0.91403353      -0.92114391E-03   0.24962377E-02
  7759.4300       0.77754765        1.0660636       0.83698452       0.92550044       0.52611396E-02   0.17422059E-02
  7761.9470       0.79584382        1.0728848       0.85922903       0.93627003       0.77864013E-02   0.11739966E-02
  7764.4680       0.81677554        1.0788734       0.88411536       0.94621317       0.11175735E-01   0.52339676E-03
  7766.9650       0.85192366        1.0840008       0.92318045       0.95525757       0.10412806E-01  -0.62237890E-04
  7769.4620       0.86877709        1.0883559       0.94395085       0.96352965       0.10864919E-01   0.12157765E-03
  7771.9870       0.90648728        1.0920029       0.98562192       0.97113754       0.11023369E-01  -0.11574573E-02
  7774.4880       0.92418055        1.0948931        1.0072384       0.97795094       0.50475383E-02  -0.17855816E-02
  7776.9970       0.93177544        1.0970985        1.0187691       0.98409216       0.20776052E-02  -0.66238850E-03
  7780.5620       0.93679992        1.0990920        1.0293859       0.99167801       0.10241905E-02  -0.86462589E-03
  7784.1490       0.93910046        1.0998210        1.0373133       0.99803374      -0.41061991E-02  -0.61227168E-03
  7787.6930       0.90751861        1.0993638        1.0112908        1.0031359      -0.33419188E-02   0.68784100E-03
  7791.2820       0.91526255        1.0977899        1.0246647        1.0071920       0.80017068E-03   0.24429640E-03
  7794.8620       0.91325504        1.0951881        1.0282730        1.0102060      -0.15905580E-02  -0.63214898E-03
  7798.4360       0.90388370        1.0916447        1.0245081        1.0122690      -0.37222231E-02  -0.24311972E-03
  7802.0150       0.88662998        1.0872309        1.0128686        1.0134695      -0.33295933E-02   0.10470392E-03
  7805.6140       0.87998388        1.0820019        1.0118682        1.0138861      -0.29706584E-02   0.73087691E-04
  7809.2040       0.86527391        1.0760790        1.0027897        1.0135948      -0.28041659E-02   0.40326157E-03
  7812.8090       0.85980790        1.0695043        1.0029788        1.0126752      -0.69191396E-04   0.56893132E-04
  7816.3810       0.86477733        1.0624523        1.0135515        1.0112264      -0.23958439E-02  -0.48137514E-03
  7819.9940       0.84259376        1.0548584       0.99703550        1.0093001      -0.35278718E-02  -0.16984985E-04
  7823.6050       0.83929198        1.0468895       0.99939819        1.0069957      -0.25185435E-02  -0.14040086E-03
  7827.2230       0.82438721        1.0386095       0.99016886        1.0043911      -0.45428296E-02   0.77277213E-04
  7830.8140       0.80654272        1.0301819       0.97795746        1.0015967      -0.19614520E-02   0.76080235E-03
  7834.4380       0.81023534        1.0215500       0.98733493       0.99864957       0.94635936E-03  -0.13053913E-03
  7838.0600       0.81340004        1.0128801       0.99618136       0.99566141      -0.29073386E-02  -0.34942067E-03
  7841.6900       0.78915132        1.0042335       0.97762690       0.99270911      -0.15876393E-02   0.88321616E-03
  7845.3200       0.80187378       0.99571493       0.99604363       0.98988477       0.35048108E-02   0.14028788E-02
