# XDI/1.0 Athena/0.9.26
# Element.edge:                  K
# Element.symbol:                Co
# Column.1:                      energy eV
# Column.2:                      norm
# Column.3:                      nbkg
# Column.4:                      flat
# Column.5:                      fbkg
# Column.6:                      nder
# Column.7:                      nsec
# Athena.e0:                     7721.54
# Athena.eshift:                 0
# Athena.rbkg:                   1.0
# Athena.importance:             1
# Athena.standard:               None
# Athena.bkg_kweight:            3
# Athena.edge_step:              1.1961170
# Athena.fixed_step:             no
# Athena.pre_edge_range:         -82.964 -19.904
# Athena.pre_edge_line:          0.267474 + 0.000179807 * E
# Athena.normalization_range:    45 125.256
# Athena.post_edge_polynomial:   15.792702 - 0.00167593 * E + 0 * E^2 + 0 * E^3
# Athena.spline_range_energy:    0.000 125.180
# Athena.clamps:                 0 24
# Athena.spline_range_k:         0.000 5.732
# Athena.kweight:                2
# Athena.window:                 hanning
# Athena.phase_correction:       no
# Athena.k_range:                .4 5.35
# Athena.dk:                     .5
# Athena.r_range:                .4 5.1
# Athena.dr:                     .5
# Athena.window:                 hanning
# Athena.plot_multiplier:        1
# Athena.y_offset:               0.2
# ///
#------------------------
#   e         norm        nbkg        flat        fbkg        nder        nsec
  7600.0670      -0.21436662      -0.14366617E-01  -0.21436662      -0.21436662       0.11990292E-01  -0.49097580E-03
  7610.6410      -0.87581270E-01   0.11241873      -0.87581268E-01  -0.87581268E-01   0.67987142E-02  -0.36691267E-03
  7624.5560      -0.47872909E-01   0.15212709      -0.47872908E-01  -0.47872908E-01   0.30049680E-02  -0.20600040E-03
  7637.2000      -0.77723242E-02   0.19222768      -0.77723240E-02  -0.77723241E-02   0.13275495E-02  -0.13151256E-03
  7649.6990      -0.14494332E-01   0.18550567      -0.14494332E-01  -0.14494332E-01  -0.30165233E-03   0.90714870E-04
  7662.1990      -0.15313331E-01   0.18468667      -0.15313330E-01  -0.15313331E-01   0.35953305E-02   0.19897210E-04
  7674.7330       0.75511171E-01   0.27551117       0.75511170E-01   0.75511170E-01   0.19645443E-03  -0.27425781E-03
  7687.3310      -0.10376038E-01   0.18962396      -0.10376038E-01  -0.10376038E-01  -0.32973167E-02   0.59575494E-05
  7700.0100      -0.78351021E-02   0.19216490      -0.78351020E-02  -0.78351020E-02   0.34704341E-03   0.79800027E-03
  7700.3880      -0.58446923E-02   0.19415531      -0.58446922E-02  -0.58446922E-02   0.71221728E-02   0.46814921E-02
  7700.7190      -0.27854816E-02   0.19721452      -0.27854816E-02  -0.27854816E-02   0.36662213E-02  -0.17696145E-01
  7701.0710      -0.33406632E-02   0.19665934      -0.33406631E-02  -0.33406631E-02  -0.49642945E-02  -0.14215602E-02
  7701.4340      -0.63349522E-02   0.19366505      -0.63349521E-02  -0.63349521E-02   0.26498058E-02   0.14538432E-01
  7701.7980      -0.14142544E-02   0.19858575      -0.14142543E-02  -0.14142543E-02   0.56051452E-02  -0.97188230E-02
  7702.1550      -0.22936425E-02   0.19770636      -0.22936425E-02  -0.22936425E-02  -0.43574656E-02  -0.17500321E-01
  7702.5150      -0.45385572E-02   0.19546144      -0.45385571E-02  -0.45385571E-02  -0.69425852E-02   0.30906502E-02
  7702.8790      -0.73200742E-02   0.19267993      -0.73200741E-02  -0.73200741E-02  -0.21198349E-02   0.10409156E-01
  7703.2420      -0.60796771E-02   0.19392032      -0.60796770E-02  -0.60796770E-02   0.62487120E-03   0.58584003E-02
  7703.6000      -0.68695421E-02   0.19313046      -0.68695419E-02  -0.68695420E-02   0.21040717E-02   0.97620750E-02
  7703.9610      -0.45668495E-02   0.19543315      -0.45668494E-02  -0.45668495E-02   0.76438031E-02   0.49883469E-02
  7704.3250      -0.13277849E-02   0.19867222      -0.13277848E-02  -0.13277849E-02   0.57206233E-02  -0.13037956E-01
  7704.6870      -0.41367706E-03   0.19958632      -0.41367705E-03  -0.41367708E-03  -0.18217533E-02  -0.16541329E-01
  7705.0200      -0.25939034E-02   0.19740610      -0.25939033E-02  -0.25939034E-02  -0.57756007E-02   0.17762530E-02
  7705.3810      -0.44219440E-02   0.19557806      -0.44219439E-02  -0.44219439E-02  -0.58903375E-03   0.32109880E-01
  7705.7490      -0.30233090E-02   0.19697669      -0.30233089E-02  -0.30233090E-02   0.17632502E-01   0.35259519E-01
  7706.1120       0.84674150E-02   0.20846741       0.84674148E-02   0.84674148E-02   0.25185675E-01   0.14726499E-01
  7706.4710       0.15160748E-01   0.21516075       0.15160748E-01   0.15160748E-01   0.28265035E-01   0.86846424E-02
  7706.8310       0.28789975E-01   0.22878997       0.28789974E-01   0.28789974E-01   0.31429933E-01  -0.39608975E-02
  7707.1960       0.37947449E-01   0.23794745       0.37947448E-01   0.37947448E-01   0.25393384E-01  -0.18940557E-01
  7707.5570       0.47225572E-01   0.24722557       0.47225570E-01   0.47225570E-01   0.17679088E-01  -0.27757676E-01
  7707.9150       0.50658713E-01   0.25065871       0.50658712E-01   0.50658712E-01   0.54356151E-02  -0.18965466E-01
  7708.2800       0.51155521E-01   0.25115552       0.51155520E-01   0.51155520E-01   0.39670560E-02  -0.70752969E-02
  7708.6460       0.53558631E-01   0.25355863       0.53558630E-01   0.53558630E-01   0.26357304E-03  -0.14691122E-01
  7708.9820       0.51340550E-01   0.25134055       0.51340548E-01   0.51340548E-01  -0.63461119E-02   0.50573349E-02
  7709.2900       0.49471735E-01   0.24947173       0.49471734E-01   0.49471734E-01   0.35204967E-02   0.21275252E-01
  7709.5960       0.53502134E-01   0.25350213       0.53502133E-01   0.53502133E-01   0.67168930E-02  -0.16829106E-01
  7709.9030       0.53589191E-01   0.25358919       0.53589189E-01   0.53589189E-01  -0.67957452E-02  -0.34630735E-01
  7710.2110       0.49322751E-01   0.24932275       0.49322750E-01   0.49322750E-01  -0.14581009E-01  -0.14701218E-02
  7710.5140       0.44680194E-01   0.24468019       0.44680193E-01   0.44680193E-01  -0.76939897E-02   0.18631064E-01
  7710.8230       0.44614030E-01   0.24461403       0.44614028E-01   0.44614028E-01  -0.31787982E-02   0.22741956E-01
  7711.1080       0.42791988E-01   0.24279199       0.42791987E-01   0.42791987E-01   0.58147325E-02   0.11082567E-01
  7711.4160       0.48062166E-01   0.24806216       0.48062165E-01   0.48062165E-01   0.33931638E-02  -0.17953713E-01
  7711.7250       0.44885570E-01   0.24488557       0.44885569E-01   0.44885569E-01  -0.52627087E-02  -0.11597134E-01
  7712.0290       0.44836125E-01   0.24483612       0.44836124E-01   0.44836124E-01  -0.37158791E-02  -0.10195079E-01
  7712.3330       0.42626315E-01   0.24262631       0.42626314E-01   0.42626314E-01  -0.11461317E-01   0.13099556E-01
  7712.6440       0.37787416E-01   0.23778741       0.37787415E-01   0.37787415E-01   0.43403480E-02   0.44749486E-01
  7712.9530       0.45317331E-01   0.24531733       0.45317330E-01   0.45317330E-01   0.16283365E-01   0.31317052E-01
  7713.2350       0.47410884E-01   0.24741088       0.47410883E-01   0.47410883E-01   0.22848726E-01   0.44289377E-01
  7713.5380       0.58683836E-01   0.25868383       0.58683834E-01   0.58683834E-01   0.42192650E-01   0.60140363E-01
  7713.8530       0.73485942E-01   0.27348594       0.73485940E-01   0.73485940E-01   0.60015470E-01   0.48873621E-01
  7714.1610       0.96073473E-01   0.29607347       0.96073471E-01   0.96073471E-01   0.72640916E-01   0.13283297E-01
  7714.4700       0.11830539       0.31830538       0.11830538       0.11830538       0.68211264E-01  -0.33882272E-01
  7714.7770       0.13809161       0.33809161       0.13809161       0.13809161       0.51769437E-01  -0.58403519E-01
  7715.0770       0.14972944       0.34972943       0.14972943       0.14972943       0.32760328E-01  -0.17592401E-01
  7715.3860       0.15804265       0.35804265       0.15804265       0.15804265       0.41055664E-01   0.24186472E-01
  7715.6700       0.17407544       0.37407544       0.17407544       0.17407544       0.47102906E-01  -0.15753298E-01
  7715.9720       0.18564495       0.38564495       0.18564495       0.18564495       0.31824232E-01  -0.77256325E-01
  7716.1370       0.18893736       0.38893736       0.18893736       0.18893736       0.11024202E-01  -0.97418142E-02
  7716.2550       0.18876480       0.38876480       0.18876480       0.18876480       0.29067298E-01   0.21118505
  7716.3670       0.19562284       0.39562283       0.19562283       0.19562283       0.59596764E-01   0.10617080
  7716.4990       0.20330641       0.40330641       0.20330641       0.20330641       0.54972973E-01  -0.15126551E-02
  7716.6200       0.20953100       0.40953100       0.20953100       0.20953100       0.59214062E-01  -0.19465859E-01
  7716.7330       0.21716251       0.41716250       0.21716250       0.21716250       0.50417962E-01  -0.60889812E-01
  7716.8670       0.22198424       0.42198423       0.22198423       0.22198423       0.44174279E-01  -0.26745213E-01
  7716.9880       0.22842695       0.42842694       0.22842694       0.22842694       0.43597933E-01  -0.31047116E-01
  7717.1010       0.23218615       0.43218615       0.23218615       0.23218615       0.36909254E-01   0.38067468E-01
  7717.2330       0.23746971       0.43746971       0.23746971       0.23746971       0.52924462E-01   0.20110220
  7717.3500       0.24536434       0.44536434       0.24536434       0.24536434       0.86983702E-01  -0.35196874E-01
  7717.4620       0.25738898       0.45738898       0.25738898       0.25738898       0.44864378E-01  -0.20861581
  7717.5920       0.25622152       0.45622152       0.25622152       0.25622152       0.36498675E-01   0.20037456
  7717.7100       0.26644065       0.46644065       0.26644065       0.26644065       0.94557268E-01   0.18821152
  7717.8420       0.27986084       0.47986083       0.27986083       0.27986083       0.83551555E-01  -0.11234681
  7717.9600       0.28732854       0.48732853       0.28732853       0.28732853       0.66470566E-01   0.12424647
  7718.0740       0.29528201       0.49528201       0.29528201       0.29528201       0.11237674       0.17526706
  7718.2060       0.31497322       0.51497321       0.31497321       0.31497321       0.10958626      -0.20914565
  7718.3280       0.32311692       0.52311692       0.32311692       0.32311692       0.59253741E-01  -0.13545002
  7718.4410       0.32889785       0.52889784       0.32889784       0.32889784       0.77755508E-01   0.17991173
  7718.5730       0.34216702       0.54216701       0.34216701       0.34216701       0.10333211       0.25926698E-01
  7718.6930       0.35493754       0.55493753       0.35493753       0.35493753       0.84289036E-01  -0.55431101E-01
  7718.8050       0.36172208       0.56172207       0.36172207       0.36172207       0.90472099E-01   0.21336170
  7718.9360       0.37692226       0.57692225       0.37692225       0.37692225       0.13613593       0.29692674
  7719.0560       0.39589220       0.59589219       0.39589219       0.39589219       0.16500071      -0.39099007E-01
  7719.1680       0.41520243       0.61520242       0.41520242       0.41520242       0.12706496      -0.29529969
  7719.2990       0.42676898       0.62676897       0.42676897       0.42676897       0.93242887E-01   0.88881829E-01
  7719.4200       0.43869963       0.63869962       0.43869962       0.43869962       0.14946318       0.23506178
  7719.5350       0.46204229       0.66204228       0.46204228       0.46204228       0.14871747      -0.10476622
  7719.6660       0.47528413       0.67528412       0.47528412       0.47528412       0.12369069       0.73869736E-01
  7719.7880       0.49333604       0.69333603       0.49333603       0.49333603       0.16740651       0.29869499
  7719.9010       0.51462466       0.71462465       0.51462465       0.51462465       0.19388401       0.48996255E-01
  7720.0340       0.54103150       0.74103149       0.54103149       0.54103149       0.17945959       0.87177843E-01
  7720.1540       0.56002794       0.76002792       0.56002792       0.56002792       0.21594001       0.53089164E-01
  7720.2670       0.59134553       0.79134551       0.59134551       0.59134551       0.19182936      -0.34688576
  7720.3970       0.60664247       0.80664246       0.60664246       0.60664246       0.13164677      -0.10578228
  7720.5160       0.62412557       0.82412556       0.62412556       0.62412556       0.16548958       0.21883026
  7720.6460       0.64784938       0.84784936       0.64784936       0.64784936       0.18613550       0.28634955
  7720.7660       0.67065945       0.87065943       0.67065943       0.67065943       0.23707696       0.17856674
  7720.8790       0.70308831       0.90308829       0.70308829       0.70308829       0.22774155      -0.19409978
  7721.0130       0.72691161       0.92691159       0.72691159       0.72691159       0.18913432      -0.92518791E-01
  7721.1330       0.75112842       0.95112841       0.75112841       0.75112841       0.20424178       0.97742957E-01
  7721.2460       0.77449994       0.97449993       0.77449993       0.77449993       0.21190843       0.10902923
  7721.3790       0.80325790        1.0032579       0.80325788       0.80325788       0.23106297       0.23168297
  7721.5000       0.83318994        1.0331899       0.83312789       0.83312789       0.27075590       0.54984871E-01
  7721.6120       0.86634402        2.2682907       0.86645573        2.0684025       0.24387445      -0.16808329
  7721.7440       0.89269530        2.2507987       0.89301181        2.0511152       0.22974358       0.87700459E-01
  7721.8620       0.92377992        2.2352983       0.92427949        2.0357979       0.26579956      -0.71218896E-01
  7721.9740       0.95382920        2.2207046       0.95450254        2.0213779       0.21336323      -0.41082157
  7722.1040       0.97541382        2.2039098       0.97628885        2.0047848       0.16638074       0.19966466E-01
  7722.2260       0.99575715        2.1882888       0.99682146        1.9893532       0.21839478       0.25654541
  7722.3580        1.0308861        2.1715399        1.0321552        1.9728091       0.23154328      -0.14112011
  7722.4790        1.0543376        2.1563254        1.0557944        1.9577822       0.18269139      -0.33185642
  7722.5930        1.0738186        2.1421117        1.0754523        1.9437454       0.15355702      -0.25143407
  7722.7240        1.0919591        2.1259225        1.0937960        1.9277595       0.12109005      -0.63735744E-01
  7722.8460        1.1044544        2.1109835        1.1064806        1.9130097       0.13743187       0.22481977
  7722.9580        1.1241181        2.0973856        1.1263181        1.8995856       0.17369787       0.18545324
  7723.0510        1.1400624        2.0861790        1.1424067        1.8885233       0.17544979      -0.13948179
  7723.2130        1.1688578        2.0668401        1.1714534        1.8694357       0.13813002      -0.14734827
  7723.4060        1.1890986        2.0441013        1.1919936        1.8469964       0.12314115      -0.14269346E-01
  7723.6030        1.2168829        2.0212264        1.2200835        1.8244271       0.13256497      -0.55886959E-01
  7723.8000        1.2413292        1.9986875        1.2448355        1.8021938       0.10112169      -0.15428704
  7724.0000        1.2570282        1.9761467        1.2608448        1.7799633       0.71313017E-01  -0.16044458
  7724.1980        1.2697118        1.9541677        1.2738355        1.7582915       0.37264747E-01  -0.14437011
  7724.3960        1.2717850        1.9325208        1.2762160        1.7369518       0.14142455E-01  -0.51204392E-01
  7724.5920        1.2752839        1.9114173        1.2800189        1.7161524       0.17090216E-01  -0.46487766E-01
  7724.7890        1.2785015        1.8905294        1.2835422        1.6955701      -0.41272368E-02  -0.12477513
  7725.0080        1.2735670        1.8676862        1.2789474        1.6730667      -0.34816238E-01  -0.42721489E-01
  7725.7230        1.2459831        1.7958336        1.2524729        1.6023234      -0.44029108E-01  -0.95531840E-02
  7726.5070        1.2075673        1.7217398        1.2152734        1.5294459      -0.49136461E-01   0.53554574E-03
  7727.3020        1.1683966        1.6514680        1.1773362        1.4604076      -0.43183481E-01   0.61660827E-02
  7728.0660        1.1402443        1.5884031        1.1503691        1.3985279      -0.39523538E-01   0.10048531E-01
  7728.8300        1.1080047        1.5295738        1.1193148        1.3408840      -0.27829326E-01   0.19581097E-01
  7729.5930        1.0977489        1.4749089        1.1102428        1.2874029      -0.96232033E-02   0.16159339E-01
  7730.3530        1.0933485        1.4243810        1.1070216        1.2380541      -0.32186520E-02   0.57183831E-02
  7731.1470        1.0927471        1.3756236        1.1076520        1.1905285      -0.73683599E-03   0.41470780E-02
  7731.9100        1.0922013        1.3325066        1.1082900        1.1485953       0.32383485E-02  -0.43404828E-02
  7732.6790        1.0977083        1.2926127        1.1149900        1.1098944      -0.73864557E-02  -0.83799026E-02
  7733.4410        1.0808926        1.2564689        1.0993566        1.0749329      -0.95912824E-02   0.37113913E-02
  7734.2140        1.0829856        1.2231051        1.1026489        1.0427684      -0.16894700E-02  -0.24077517E-02
  7734.9760        1.0782993        1.1933299        1.0991447        1.0141754      -0.13287181E-01  -0.90725254E-02
  7735.7750        1.0622443        1.1652767        1.0843294       0.98736186      -0.15851682E-01   0.76946786E-02
  7736.5390        1.0535231        1.1413398        1.0767935       0.96461023      -0.12603985E-02   0.70999339E-02
  7737.3090        1.0603109        1.1199265        1.0847759       0.94439155      -0.49603835E-02  -0.12298455E-01
  7738.0780        1.0458891        1.1011150        1.0715472       0.92677318      -0.20187721E-01  -0.83191244E-02
  7738.8440        1.0293227        1.0847923        1.0561693       0.91163885      -0.17730239E-01   0.62813423E-02
  7739.6160        1.0186200        1.0706371        1.0466642       0.89868138      -0.10527016E-01   0.17160694E-02
  7740.3880        1.0130690        1.0586419        1.0423110       0.88788395      -0.15080628E-01  -0.67148759E-02
  7741.1610       0.99532039        1.0486504        1.0257617       0.87909173      -0.20901499E-01  -0.55130009E-02
  7741.9520       0.98037909        1.0403664        1.0120476       0.87203494      -0.23702962E-01  -0.27631188E-03
  7744.4520       0.91731394        1.0253348       0.95286109       0.86088198      -0.21810842E-01   0.14429291E-02
  7746.9690       0.87095409        1.0234708       0.91040627       0.86292301      -0.16463787E-01   0.17374565E-02
  7749.4530       0.83497855        1.0298013       0.87828456       0.87310733      -0.13121822E-01   0.10552264E-02
  7751.9350       0.80579113        1.0394009       0.85294787       0.88655767      -0.11223532E-01   0.10415937E-02
  7754.4550       0.77883844        1.0487844       0.82990488       0.89985086      -0.79117705E-02   0.20178572E-02
  7756.9490       0.76612151        1.0572179       0.82105730       0.91215366      -0.11059959E-02   0.25916803E-02
  7759.4300       0.77333611        1.0647880       0.83212108       0.92357295       0.49818392E-02   0.17821759E-02
  7761.9470       0.79102074        1.0716560       0.85371075       0.93434605       0.78013195E-02   0.13019993E-02
  7764.4680       0.81263916        1.0777389       0.87924040       0.94434015       0.11541311E-01   0.67147264E-03
  7766.9650       0.84893504        1.0830017       0.91941029       0.95347695       0.11170769E-01  -0.98507825E-05
  7769.4620       0.86842598        1.0875291       0.94277523       0.96187836       0.11492117E-01   0.50246197E-04
  7771.9870       0.90664845        1.0913829       0.98491515       0.96964967       0.11423106E-01  -0.12821088E-02
  7774.4880       0.92583851        1.0945055        1.0079854       0.97665244       0.50482377E-02  -0.18858367E-02
  7776.9970       0.93194012        1.0969667        1.0179797       0.98300628       0.19750638E-02  -0.65130886E-03
  7780.5620       0.93783505        1.0993531        1.0294055       0.99092367       0.10921877E-02  -0.83424575E-03
  7784.1490       0.93975145        1.1004995        1.0368871       0.99763515      -0.39914618E-02  -0.58108898E-03
  7787.6930       0.90937193        1.1004627        1.0120059        1.0030967      -0.30515578E-02   0.68572560E-03
  7791.2820       0.91798469        1.0993085        1.0261869        1.0075107       0.89981890E-03   0.20350390E-03
  7794.8620       0.91582273        1.0971051        1.0295792        1.0108616      -0.15926383E-02  -0.59650670E-03
  7798.4360       0.90659095        1.0939252        1.0258923        1.0132266      -0.33675900E-02  -0.24419931E-03
  7802.0150       0.89173436        1.0898270        1.0165884        1.0146810      -0.33393960E-02  -0.24526334E-04
  7805.6140       0.88262077        1.0848522        1.0130585        1.0152900      -0.35436400E-02   0.99054758E-04
  7809.2040       0.86625913        1.0791056        1.0022667        1.0151131      -0.26272914E-02   0.50377511E-03
  7812.8090       0.86371741        1.0726158        1.0053180        1.0142163       0.81021885E-04  -0.22661813E-04
  7816.3810       0.86684063        1.0655426        1.0139830        1.0126850      -0.27899352E-02  -0.52178306E-03
  7819.9940       0.84367172        1.0578063       0.99641955        1.0105542      -0.36679894E-02   0.33359875E-04
  7823.6050       0.84034307        1.0495592       0.99869324        1.0079094      -0.25489435E-02  -0.10197348E-03
  7827.2230       0.82524541        1.0408493       0.98920877        1.0048127      -0.44051557E-02   0.59854860E-04
  7830.8140       0.80858630        1.0318315       0.97812097        1.0013661      -0.21174498E-02   0.72857071E-03
  7834.4380       0.80996801        1.0224237       0.98512518       0.99758094       0.85148195E-03  -0.40264432E-04
  7838.0600       0.81475614        1.0127832       0.99553272       0.99355983      -0.24092059E-02  -0.36506743E-03
  7841.6900       0.79249645        1.0029533       0.97890484       0.98936171      -0.17959871E-02   0.68173268E-03
  7845.3200       0.80171728       0.99302578       0.99375748       0.98506600       0.25401734E-02   0.11945346E-02
