# XDI/1.0 Athena/0.9.26
# Element.edge:                  K
# Element.symbol:                Co
# Column.1:                      energy eV
# Column.2:                      norm
# Column.3:                      nbkg
# Column.4:                      flat
# Column.5:                      fbkg
# Column.6:                      nder
# Column.7:                      nsec
# Athena.e0:                     7721.54
# Athena.eshift:                 0
# Athena.rbkg:                   1.0
# Athena.importance:             1
# Athena.standard:               None
# Athena.bkg_kweight:            3
# Athena.edge_step:              1.1955577
# Athena.fixed_step:             no
# Athena.pre_edge_range:         -82.964 -19.904
# Athena.pre_edge_line:          0.251771 + 0.000181812 * E
# Athena.normalization_range:    45 125.256
# Athena.post_edge_polynomial:   15.731112 - 0.00166805 * E + 0 * E^2 + 0 * E^3
# Athena.spline_range_energy:    0.000 125.180
# Athena.clamps:                 0 24
# Athena.spline_range_k:         0.000 5.732
# Athena.kweight:                2
# Athena.window:                 hanning
# Athena.phase_correction:       no
# Athena.k_range:                .4 5.35
# Athena.dk:                     .5
# Athena.r_range:                .4 5.1
# Athena.dr:                     .5
# Athena.window:                 hanning
# Athena.plot_multiplier:        1
# Athena.y_offset:               0.2
# ///
#------------------------
#   e         norm        nbkg        flat        fbkg        nder        nsec
  7600.0670      -0.21380803      -0.13808022E-01  -0.21380802      -0.21380802       0.12070273E-01  -0.49861925E-03
  7610.6410      -0.86176959E-01   0.11382304      -0.86176957E-01  -0.86176957E-01   0.67978733E-02  -0.37211475E-03
  7624.5560      -0.47334909E-01   0.15266509      -0.47334908E-01  -0.47334908E-01   0.29575551E-02  -0.20744531E-03
  7637.2000      -0.76272527E-02   0.19237275      -0.76272525E-02  -0.76272525E-02   0.12883333E-02  -0.12910258E-03
  7649.6990      -0.14942345E-01   0.18505766      -0.14942344E-01  -0.14942344E-01  -0.28847108E-03   0.92782071E-04
  7662.1990      -0.14838741E-01   0.18516126      -0.14838741E-01  -0.14838741E-01   0.36077923E-02   0.18573499E-04
  7674.7330       0.75375128E-01   0.27537513       0.75375126E-01   0.75375126E-01   0.17649789E-03  -0.27617537E-03
  7687.3310      -0.10402996E-01   0.18959700      -0.10402996E-01  -0.10402996E-01  -0.33330471E-02   0.57738351E-05
  7700.0100      -0.88743040E-02   0.19112570      -0.88743037E-02  -0.88743038E-02   0.32244312E-03   0.10187078E-02
  7700.3880      -0.61928565E-02   0.19380714      -0.61928563E-02  -0.61928563E-02   0.99682200E-02   0.67993076E-02
  7700.7190      -0.18068360E-02   0.19819316      -0.18068360E-02  -0.18068360E-02   0.51431522E-02  -0.23522760E-01
  7701.0710      -0.26800835E-02   0.19731992      -0.26800834E-02  -0.26800834E-02  -0.60978248E-02  -0.55827092E-02
  7701.4340      -0.61667808E-02   0.19383322      -0.61667806E-02  -0.61667806E-02   0.11515152E-02   0.16134043E-01
  7701.7980      -0.18429320E-02   0.19815707      -0.18429319E-02  -0.18429319E-02   0.56316244E-02  -0.52784480E-02
  7702.1550      -0.21063796E-02   0.19789362      -0.21063795E-02  -0.21063795E-02  -0.26542459E-02  -0.16150474E-01
  7702.5150      -0.37460263E-02   0.19625397      -0.37460262E-02  -0.37460262E-02  -0.59482652E-02  -0.58118077E-03
  7702.8790      -0.64129236E-02   0.19358708      -0.64129233E-02  -0.64129234E-02  -0.30750208E-02   0.72650316E-02
  7703.2420      -0.59815664E-02   0.19401843      -0.59815662E-02  -0.59815662E-02  -0.66658721E-03   0.76183401E-02
  7703.6000      -0.68935329E-02   0.19310647      -0.68935327E-02  -0.68935327E-02   0.24178025E-02   0.13545357E-01
  7703.9610      -0.42431664E-02   0.19575683      -0.42431663E-02  -0.42431663E-02   0.90725246E-02   0.23281033E-02
  7704.3250      -0.31595262E-03   0.19968405      -0.31595261E-03  -0.31595263E-03   0.41056773E-02  -0.16694867E-01
  7704.6870      -0.12624447E-02   0.19873756      -0.12624446E-02  -0.12624447E-02  -0.30479490E-02  -0.12628849E-01
  7705.0200      -0.24342772E-02   0.19756572      -0.24342771E-02  -0.24342771E-02  -0.46713726E-02   0.57334145E-02
  7705.3810      -0.45043772E-02   0.19549562      -0.45043771E-02  -0.45043771E-02   0.93104073E-03   0.29436268E-01
  7705.7490      -0.17555485E-02   0.19824445      -0.17555484E-02  -0.17555484E-02   0.16787667E-01   0.31939037E-01
  7706.1120       0.77674070E-02   0.20776741       0.77674067E-02   0.77674067E-02   0.24278476E-01   0.15341677E-01
  7706.4710       0.15773512E-01   0.21577351       0.15773511E-01   0.15773511E-01   0.27864357E-01   0.85204166E-02
  7706.8310       0.27801880E-01   0.22780188       0.27801879E-01   0.27801879E-01   0.30404656E-01  -0.22700591E-02
  7707.1960       0.37816887E-01   0.23781689       0.37816886E-01   0.37816886E-01   0.26218564E-01  -0.14731998E-01
  7707.5570       0.46836557E-01   0.24683656       0.46836556E-01   0.46836556E-01   0.19709225E-01  -0.27182301E-01
  7707.9150       0.51987820E-01   0.25198782       0.51987818E-01   0.51987818E-01   0.66744898E-02  -0.23476959E-01
  7708.2800       0.51662214E-01   0.25166221       0.51662212E-01   0.51662212E-01   0.27353835E-02  -0.85747040E-02
  7708.6460       0.53987385E-01   0.25398738       0.53987384E-01   0.53987384E-01   0.40638118E-03  -0.12942740E-01
  7708.9820       0.51947493E-01   0.25194749       0.51947491E-01   0.51947491E-01  -0.63504198E-02   0.23330547E-02
  7709.2900       0.49897715E-01   0.24989771       0.49897713E-01   0.49897713E-01   0.19088684E-02   0.21897652E-01
  7709.5960       0.53119538E-01   0.25311954       0.53119537E-01   0.53119537E-01   0.70947383E-02  -0.12464198E-01
  7709.9030       0.54246790E-01   0.25424679       0.54246788E-01   0.54246788E-01  -0.57316848E-02  -0.37665331E-01
  7710.2110       0.49594552E-01   0.24959455       0.49594551E-01   0.49594551E-01  -0.16069440E-01  -0.66033201E-02
  7710.5140       0.44428361E-01   0.24442836       0.44428360E-01   0.44428360E-01  -0.97663134E-02   0.23634943E-01
  7710.8230       0.43617568E-01   0.24361757       0.43617567E-01   0.43617567E-01  -0.16048554E-02   0.29546853E-01
  7711.1080       0.43475077E-01   0.24347508       0.43475076E-01   0.43475076E-01   0.77845173E-02   0.68207619E-02
  7711.4160       0.48233787E-01   0.24823379       0.48233786E-01   0.48233786E-01   0.24398564E-02  -0.22799856E-01
  7711.7250       0.44980469E-01   0.24498047       0.44980467E-01   0.44980467E-01  -0.62829936E-02  -0.10278978E-01
  7712.0290       0.44382312E-01   0.24438231       0.44382311E-01   0.44382311E-01  -0.38611572E-02  -0.55769148E-02
  7712.3330       0.42632885E-01   0.24263288       0.42632884E-01   0.42632884E-01  -0.96737578E-02   0.11024296E-01
  7712.6440       0.38432951E-01   0.23843295       0.38432950E-01   0.38432950E-01   0.29187847E-02   0.39202516E-01
  7712.9530       0.44442532E-01   0.24444253       0.44442530E-01   0.44442530E-01   0.14631802E-01   0.34598821E-01
  7713.2350       0.47080346E-01   0.24708034       0.47080344E-01   0.47080344E-01   0.23366688E-01   0.47202664E-01
  7713.5380       0.58112044E-01   0.25811204       0.58112042E-01   0.58112042E-01   0.42245360E-01   0.57059955E-01
  7713.8530       0.73187979E-01   0.27318798       0.73187976E-01   0.73187976E-01   0.58629740E-01   0.49628468E-01
  7714.1610       0.94638372E-01   0.29463837       0.94638369E-01   0.94638369E-01   0.73163896E-01   0.16782577E-01
  7714.4700       0.11833010       0.31833010       0.11833010       0.11833010       0.68984590E-01  -0.37177931E-01
  7714.7770       0.13713288       0.33713288       0.13713288       0.13713288       0.50262291E-01  -0.60132765E-01
  7715.0770       0.14883931       0.34883931       0.14883931       0.14883931       0.32484002E-01  -0.10161926E-01
  7715.3860       0.15691564       0.35691563       0.15691563       0.15691563       0.44073678E-01   0.29638117E-01
  7715.6700       0.17497500       0.37497500       0.17497500       0.17497500       0.50059405E-01  -0.34951668E-01
  7715.9720       0.18625045       0.38625044       0.18625044       0.18625044       0.23592001E-01  -0.84443722E-01
  7716.1370       0.18599247       0.38599246       0.18599246       0.18599246       0.10624187E-01   0.57774511E-01
  7716.2550       0.18925709       0.38925709       0.18925709       0.18925709       0.39942188E-01   0.18957254
  7716.3670       0.19517917       0.39517917       0.19517917       0.19517917       0.54225871E-01   0.92417616E-01
  7716.4990       0.20248821       0.40248820       0.20248820       0.20248820       0.62492086E-01   0.61666804E-01
  7716.6200       0.21098967       0.41098966       0.21098966       0.21098966       0.69827572E-01  -0.82391786E-01
  7716.7330       0.21882786       0.41882785       0.21882785       0.21882785       0.43212408E-01  -0.16127522
  7716.8670       0.22166313       0.42166313       0.22166313       0.22166313       0.29992593E-01  -0.23158303E-01
  7716.9880       0.22647597       0.42647596       0.22647596       0.22647596       0.37307041E-01   0.32810527E-01
  7717.1010       0.23039298       0.43039297       0.23039297       0.23039297       0.37670257E-01   0.59839890E-01
  7717.2330       0.23570518       0.43570517       0.23570517       0.23570517       0.51967814E-01   0.20018104
  7717.3500       0.24333297       0.44333296       0.24333296       0.24333296       0.87515335E-01  -0.29545264E-01
  7717.4620       0.25574619       0.45574618       0.25574618       0.25574618       0.45201948E-01  -0.18861699
  7717.5920       0.25427184       0.45427183       0.25427183       0.25427183       0.41870023E-01   0.18662344
  7717.7100       0.26612996       0.46612995       0.26612995       0.26612995       0.91484561E-01   0.16457900
  7717.8420       0.27714298       0.47714297       0.27714297       0.27714297       0.83014773E-01  -0.48003946E-01
  7717.9600       0.28688365       0.48688364       0.28688364       0.28688364       0.79483575E-01   0.10551034
  7718.0740       0.29558317       0.49558316       0.29558316       0.29558316       0.10749317       0.76273438E-01
  7718.2060       0.31332697       0.51332696       0.31332696       0.31332696       0.98246841E-01  -0.20408526
  7718.3280       0.32053787       0.52053786       0.32053786       0.32053786       0.55655517E-01  -0.12338422E-01
  7718.4410       0.32640602       0.52640601       0.32640601       0.32640601       0.95347311E-01   0.19949378
  7718.5730       0.34389796       0.54389795       0.34389795       0.34389795       0.10453149      -0.97995430E-01
  7718.6930       0.35274796       0.55274794       0.35274794       0.35274794       0.70652463E-01  -0.67267089E-01
  7718.8050       0.36028933       0.56028932       0.36028932       0.36028932       0.88925528E-01   0.30049229
  7718.9360       0.37435686       0.57435685       0.37435685       0.37435685       0.14367209       0.27209795
  7719.0560       0.39635102       0.59635101       0.39635101       0.39635101       0.15722211      -0.10597817
  7719.1680       0.41083239       0.61083238       0.41083238       0.41083238       0.11908515      -0.15941418
  7719.2990       0.42528872       0.62528870       0.42528870       0.42528870       0.11848447       0.11531028
  7719.4200       0.44069047       0.64069046       0.44069046       0.44069046       0.14814334       0.84292614E-01
  7719.5350       0.46025054       0.66025053       0.46025053       0.46025053       0.13837753      -0.63111046E-01
  7719.6660       0.47473135       0.67473133       0.47473133       0.47473133       0.13261803       0.58095696E-01
  7719.7880       0.49380291       0.69380289       0.49380289       0.49380289       0.15307574       0.23430957
  7719.9010       0.51070414       0.71070413       0.51070413       0.51070413       0.18768077       0.14548488
  7720.0340       0.53997238       0.73997236       0.53997236       0.53997236       0.18886502       0.68970018E-01
  7720.1540       0.55848699       0.75848697       0.55848697       0.55848697       0.20513019      -0.73768985E-02
  7720.2670       0.58776771       0.78776769       0.58776769       0.58776769       0.18714620      -0.20737586
  7720.3970       0.60396352       0.80396350       0.60396350       0.60396350       0.15473785      -0.71037310E-01
  7720.5160       0.62629744       0.82629742       0.62629742       0.62629742       0.16945791       0.14568080
  7720.6460       0.64615854       0.84615852       0.64615852       0.64615852       0.19101237       0.20846610
  7720.7660       0.67405053       0.87405051       0.67405051       0.67405051       0.22157443       0.75250691E-01
  7720.8790       0.69778538       0.89778536       0.69778536       0.69778536       0.20854579      -0.17026745E-01
  7721.0130       0.72556134       0.92556132       0.72556132       0.72556132       0.21736883      -0.45600070E-01
  7721.1330       0.75299706       0.95299704       0.75299704       0.75299704       0.19696337      -0.35929498E-01
  7721.2460       0.77145380       0.97145378       0.77145378       0.77145378       0.20899726       0.20792756
  7721.3790       0.80441039        1.0044104       0.80441036       0.80441036       0.24811355       0.23306234
  7721.5000       0.83447464        1.0344746       0.83441276       0.83441276       0.26819509      -0.81573842E-01
  7721.6120       0.86689985        2.2719688       0.86701125        2.0720802       0.22910684      -0.19607787
  7721.7440       0.89037671        2.2544214       0.89069236        2.0547371       0.22035209       0.22539995
  7721.8620       0.92198787        2.2388720       0.92248609        2.0393702       0.28545683      -0.52782031E-01
  7721.9740       0.95603179        2.2242322       0.95670331        2.0249037       0.20821222      -0.57584263
  7722.1040       0.97237523        2.2073843       0.97324789        2.0082570       0.14610291       0.80554474E-01
  7722.2260       0.99284972        2.1917140       0.99391115        1.9927755       0.22851195       0.34812908
  7722.3580        1.0304173        2.1749122        1.0316829        1.9761779       0.23452770      -0.19203122
  7722.4790        1.0521852        2.1596496        1.0536381        1.9611025       0.17992805      -0.26434630
  7722.5930        1.0727004        2.1453911        1.0743296        1.9470204       0.17240632      -0.21086775
  7722.7240        1.0944248        2.1291508        1.0962568        1.9309828       0.12826545      -0.19798953
  7722.8460        1.1051515        2.1141646        1.1071723        1.9161854       0.12231497       0.18224555
  7722.9580        1.1230465        2.1005239        1.1252405        1.9027180       0.17091091       0.27605743
  7723.0510        1.1401882        2.0892820        1.1425262        1.8916199       0.17890674      -0.11219208
  7723.2130        1.1686677        2.0698821        1.1712563        1.8724708       0.14230193      -0.15511971
  7723.4060        1.1907054        2.0470718        1.1935926        1.8499590       0.12383924      -0.25177847E-01
  7723.6030        1.2169650        2.0241248        1.2201570        1.8273169       0.13248257      -0.50839031E-01
  7723.8000        1.2429036        2.0015151        1.2464004        1.8050119       0.10380867      -0.14751990
  7724.0000        1.2581770        1.9789034        1.2619833        1.7827098       0.73917166E-01  -0.16753177
  7724.1980        1.2723226        1.9568553        1.2764353        1.7609680       0.37131023E-01  -0.15784354
  7724.3960        1.2728809        1.9351405        1.2773000        1.7395596       0.11411123E-01  -0.43803784E-01
  7724.5920        1.2768186        1.9139709        1.2815409        1.7186932       0.19872332E-01  -0.47356901E-01
  7724.7890        1.2806908        1.8930174        1.2857179        1.6980446      -0.72001394E-02  -0.13447992
  7725.0080        1.2738233        1.8701027        1.2791893        1.6754687      -0.36071313E-01  -0.38339864E-01
  7725.7230        1.2470002        1.7980254        1.2534724        1.6044977      -0.43009573E-01  -0.85951796E-02
  7726.5070        1.2093520        1.7237005        1.2170373        1.5313859      -0.48955487E-01   0.28751304E-04
  7727.3020        1.1696994        1.6532104        1.1786149        1.4621258      -0.42964174E-01   0.63042442E-02
  7728.0660        1.1423708        1.5899501        1.1524684        1.4000477      -0.39127170E-01   0.86311267E-02
  7728.8300        1.1099131        1.5309394        1.1211928        1.3422191      -0.29775813E-01   0.18468244E-01
  7729.5930        1.0969032        1.4761066        1.1093634        1.2885669      -0.10926161E-01   0.17867722E-01
  7730.3530        1.0932726        1.4254243        1.1069087        1.2390605      -0.25632725E-02   0.70865408E-02
  7731.1470        1.0929198        1.3765186        1.1077845        1.1913834       0.86323209E-04   0.35540701E-02
  7731.9100        1.0934070        1.3332714        1.1094523        1.1493167       0.29704146E-02  -0.49490491E-02
  7732.6790        1.0974705        1.2932577        1.1147057        1.1104929      -0.74956200E-02  -0.73027035E-02
  7733.4410        1.0819312        1.2570063        1.1003454        1.0754205      -0.82100244E-02   0.41287280E-02
  7734.2140        1.0848681        1.2235440        1.1044783        1.0431542      -0.11580225E-02  -0.34839814E-02
  7734.9760        1.0801536        1.1936818        1.1009429        1.0144711      -0.13557936E-01  -0.99955897E-02
  7735.7750        1.0637042        1.1655476        1.0857297       0.98757316      -0.16761138E-01   0.77380565E-02
  7736.5390        1.0539560        1.1415425        1.0771636       0.96475020      -0.14633535E-02   0.82388981E-02
  7737.3090        1.0614594        1.1200693        1.0858584       0.94446837      -0.41226683E-02  -0.12168984E-01
  7738.0780        1.0476112        1.1012063        1.0732001       0.92679521      -0.20191420E-01  -0.91260941E-02
  7738.8440        1.0304656        1.0848399        1.0572397       0.91161405      -0.18131223E-01   0.63157914E-02
  7739.6160        1.0197254        1.0706481        1.0476940       0.89861673      -0.10477733E-01   0.24496134E-02
  7740.3880        1.0142879        1.0586232        1.0434511       0.88778635      -0.14349020E-01  -0.78037360E-02
  7741.1610       0.99755612        1.0486084        1.0279153       0.87896756      -0.22534505E-01  -0.66370334E-02
  7741.9520       0.97904398        1.0403066        1.0106271       0.87188971      -0.24729340E-01   0.32188762E-03
  7744.4520       0.91617187        1.0252540       0.95162314       0.86070529      -0.21475173E-01   0.16972856E-02
  7746.9690       0.87130304        1.0234098       0.91064882       0.86275558      -0.16214058E-01   0.16116168E-02
  7749.4530       0.83508536        1.0297838       0.87827458       0.87297303      -0.13415477E-01   0.10095971E-02
  7751.9350       0.80468178        1.0394345       0.85171135       0.88646414      -0.11200398E-01   0.11158712E-02
  7754.4550       0.77906097        1.0488655       0.82998968       0.89979428      -0.78338893E-02   0.20434069E-02
  7756.9490       0.76540266        1.0573402       0.82019029       0.91212785      -0.95475609E-03   0.26377764E-02
  7759.4300       0.77431106        1.0649459       0.83293749       0.92357239       0.52890484E-02   0.17187058E-02
  7761.9470       0.79183732        1.0718451       0.85435826       0.93436604       0.76353357E-02   0.12506122E-02
  7764.4680       0.81277788        1.0779543       0.87919950       0.94437597       0.11589633E-01   0.73873430E-03
  7766.9650       0.84999410        1.0832390       0.92027928       0.95352416       0.11342304E-01  -0.13129387E-03
  7769.4620       0.86942135        1.0877843       0.94357008       0.96193305       0.10933951E-01  -0.39489926E-04
  7771.9870       0.90490440        1.0916527       0.98296002       0.96970835       0.11143986E-01  -0.11020869E-02
  7774.4880       0.92543102        1.0947865        1.0073564       0.97671189       0.53948623E-02  -0.17767294E-02
  7776.9970       0.93193266        1.0972562        1.0177401       0.98306371       0.22425717E-02  -0.69740718E-03
  7780.5620       0.93905240        1.0996506        1.0303759       0.99097418       0.11588111E-02  -0.87510739E-03
  7784.1490       0.94022048        1.1008012        1.0370941       0.99767488      -0.40161964E-02  -0.60794087E-03
  7787.6930       0.91041291        1.1007659        1.0127701        1.0031231      -0.31764153E-02   0.68141076E-03
  7791.2820       0.91756311        1.0996116        1.0254735        1.0075220       0.84430660E-03   0.25090860E-03
  7794.8620       0.91646574        1.0974077        1.0299154        1.0108573      -0.13776516E-02  -0.61104698E-03
  7798.4360       0.90770739        1.0942277        1.0266870        1.0132073      -0.35271235E-02  -0.30449061E-03
  7802.0150       0.89123623        1.0901312        1.0157536        1.0146486      -0.35556729E-02   0.98802654E-05
  7805.6140       0.88218477        1.0851610        1.0122708        1.0152470      -0.34562029E-02   0.13047850E-03
  7809.2040       0.86638958        1.0794229        1.0020303        1.0150636      -0.26176630E-02   0.51034967E-03
  7812.8090       0.86335068        1.0729467        1.0045693        1.0141654       0.21576293E-03  -0.10402060E-04
  7816.3810       0.86793811        1.0658932        1.0146837        1.0126387      -0.26923186E-02  -0.54342945E-03
  7819.9940       0.84400637        1.0581842       0.99634224        1.0105201      -0.36887777E-02   0.42109367E-04
  7823.6050       0.84129038        1.0499728       0.99921348        1.0078959      -0.23881205E-02  -0.12644987E-03
  7827.2230       0.82674265        1.0413084       0.99026380        1.0048296      -0.46028838E-02   0.15644960E-04
  7830.8140       0.80810819        1.0323464       0.97718563        1.0014239      -0.22753360E-02   0.80124674E-03
  7834.4380       0.81032610        1.0230070       0.98501088       0.99769180       0.11781115E-02  -0.31779594E-04
  7838.0600       0.81664479        1.0134479       0.99693381       0.99373697      -0.25056109E-02  -0.44180010E-03
  7841.6900       0.79215541        1.0037139       0.97806106       0.98961960      -0.20258228E-02   0.71630181E-03
  7845.3200       0.80193732       0.99389784       0.99345959       0.98542014       0.26947402E-02   0.13004306E-02
