# XDI/1.0 Athena/0.9.26
# Element.edge:                  K
# Element.symbol:                Co
# Column.1:                      energy eV
# Column.2:                      norm
# Column.3:                      nbkg
# Column.4:                      flat
# Column.5:                      fbkg
# Column.6:                      nder
# Column.7:                      nsec
# Athena.e0:                     7721.54
# Athena.eshift:                 0
# Athena.rbkg:                   1.0
# Athena.importance:             1
# Athena.standard:               None
# Athena.bkg_kweight:            3
# Athena.edge_step:              1.1949952
# Athena.fixed_step:             no
# Athena.pre_edge_range:         -82.964 -19.904
# Athena.pre_edge_line:          0.203303 + 0.000188169 * E
# Athena.normalization_range:    45 125.256
# Athena.post_edge_polynomial:   15.717827 - 0.00166632 * E + 0 * E^2 + 0 * E^3
# Athena.spline_range_energy:    0.000 125.180
# Athena.clamps:                 0 24
# Athena.spline_range_k:         0.000 5.732
# Athena.kweight:                2
# Athena.window:                 hanning
# Athena.phase_correction:       no
# Athena.k_range:                .4 5.35
# Athena.dk:                     .5
# Athena.r_range:                .4 5.1
# Athena.dr:                     .5
# Athena.window:                 hanning
# Athena.plot_multiplier:        1
# Athena.y_offset:               0.2
# ///
#------------------------
#   e         norm        nbkg        flat        fbkg        nder        nsec
  7600.0670      -0.21361618      -0.13616169E-01  -0.21361617      -0.21361617       0.12039485E-01  -0.49500521E-03
  7610.6410      -0.86310668E-01   0.11368934      -0.86310665E-01  -0.86310665E-01   0.68052994E-02  -0.37056953E-03
  7624.5560      -0.46961201E-01   0.15303880      -0.46961199E-01  -0.46961199E-01   0.29646073E-02  -0.20777180E-03
  7637.2000      -0.75736636E-02   0.19242634      -0.75736633E-02  -0.75736633E-02   0.12870882E-02  -0.13189569E-03
  7649.6990      -0.14599943E-01   0.18540006      -0.14599942E-01  -0.14599942E-01  -0.35164618E-03   0.94994194E-04
  7662.1990      -0.16364466E-01   0.18363553      -0.16364466E-01  -0.16364466E-01   0.36618481E-02   0.22766799E-04
  7674.7330       0.77070762E-01   0.27707076       0.77070759E-01   0.77070759E-01   0.21829787E-03  -0.28047483E-03
  7687.3310      -0.10878204E-01   0.18912180      -0.10878204E-01  -0.10878204E-01  -0.33870454E-02   0.66791589E-05
  7700.0100      -0.85435838E-02   0.19145642      -0.85435834E-02  -0.85435834E-02   0.38712697E-03   0.91793617E-03
  7700.3880      -0.58234874E-02   0.19417651      -0.58234872E-02  -0.58234872E-02   0.85984473E-02   0.53793167E-02
  7700.7190      -0.24472846E-02   0.19755272      -0.24472845E-02  -0.24472845E-02   0.42010625E-02  -0.20896005E-01
  7701.0710      -0.29541617E-02   0.19704584      -0.29541616E-02  -0.29541616E-02  -0.56735240E-02  -0.28513068E-02
  7701.4340      -0.65038543E-02   0.19349615      -0.65038541E-02  -0.65038541E-02   0.21623782E-02   0.17740274E-01
  7701.7980      -0.13821128E-02   0.19861789      -0.13821127E-02  -0.13821127E-02   0.72236551E-02  -0.84317350E-02
  7702.1550      -0.12955990E-02   0.19870440      -0.12955990E-02  -0.12955990E-02  -0.39169028E-02  -0.18900782E-01
  7702.5150      -0.41905321E-02   0.19580947      -0.41905319E-02  -0.41905319E-02  -0.63282055E-02   0.86831414E-03
  7702.8790      -0.58772198E-02   0.19412278      -0.58772196E-02  -0.58772196E-02  -0.32882434E-02   0.62407110E-02
  7703.2420      -0.65810850E-02   0.19341892      -0.65810847E-02  -0.65810847E-02  -0.17912086E-02   0.11650901E-01
  7703.6000      -0.71686812E-02   0.19283132      -0.71686809E-02  -0.71686809E-02   0.51120559E-02   0.15104753E-01
  7703.9610      -0.29055168E-02   0.19709448      -0.29055167E-02  -0.29055167E-02   0.90691087E-02  -0.32119639E-02
  7704.3250      -0.59357742E-03   0.19940642      -0.59357739E-03  -0.59357739E-03   0.27833821E-02  -0.15077664E-01
  7704.6870      -0.88478138E-03   0.19911522      -0.88478134E-03  -0.88478134E-03  -0.18772753E-02  -0.99821860E-02
  7705.0200      -0.18982837E-02   0.19810172      -0.18982837E-02  -0.18982837E-02  -0.41542372E-02   0.12109509E-02
  7705.3810      -0.37678220E-02   0.19623218      -0.37678218E-02  -0.37678218E-02  -0.10368754E-02   0.28561828E-01
  7705.7490      -0.26541659E-02   0.19734583      -0.26541658E-02  -0.26541658E-02   0.16667335E-01   0.35594947E-01
  7706.1120       0.84159999E-02   0.20841600       0.84159996E-02   0.84159996E-02   0.24983031E-01   0.15555328E-01
  7706.4710       0.15383582E-01   0.21538358       0.15383582E-01   0.15383582E-01   0.27898282E-01   0.91349477E-02
  7706.8310       0.28474865E-01   0.22847486       0.28474864E-01   0.28474864E-01   0.31551058E-01  -0.10605255E-02
  7707.1960       0.38258100E-01   0.23825810       0.38258098E-01   0.38258098E-01   0.27129401E-01  -0.19742706E-01
  7707.5570       0.48170810E-01   0.24817081       0.48170808E-01   0.48170808E-01   0.17217854E-01  -0.33312182E-01
  7707.9150       0.50637736E-01   0.25063773       0.50637735E-01   0.50637735E-01   0.31779425E-02  -0.17819486E-01
  7708.2800       0.50468462E-01   0.25046846       0.50468460E-01   0.50468460E-01   0.43343657E-02  -0.15849265E-02
  7708.6460       0.53806158E-01   0.25380616       0.53806156E-01   0.53806156E-01   0.20193612E-02  -0.16169519E-01
  7708.9820       0.51886054E-01   0.25188605       0.51886052E-01   0.51886052E-01  -0.70166363E-02  -0.21195410E-02
  7709.2900       0.49287444E-01   0.24928744       0.49287442E-01   0.49287442E-01   0.65437686E-03   0.21206448E-01
  7709.5960       0.52287841E-01   0.25228784       0.52287839E-01   0.52287839E-01   0.60041227E-02  -0.12155455E-01
  7709.9030       0.52967971E-01   0.25296797       0.52967969E-01   0.52967969E-01  -0.67969173E-02  -0.29803877E-01
  7710.2110       0.48107737E-01   0.24810774       0.48107735E-01   0.48107735E-01  -0.12325261E-01   0.12929207E-02
  7710.5140       0.45437237E-01   0.24543723       0.45437235E-01   0.45437235E-01  -0.60069427E-02   0.15713626E-01
  7710.8230       0.44431488E-01   0.24443149       0.44431487E-01   0.44431487E-01  -0.27085223E-02   0.21316565E-01
  7711.1080       0.43828374E-01   0.24382837       0.43828373E-01   0.43828373E-01   0.66550970E-02   0.11370745E-01
  7711.4160       0.48377961E-01   0.24837796       0.48377959E-01   0.48377959E-01   0.40343293E-02  -0.17752659E-01
  7711.7250       0.46317555E-01   0.24631755       0.46317554E-01   0.46317554E-01  -0.42982937E-02  -0.52072841E-02
  7712.0290       0.45743107E-01   0.24574310       0.45743105E-01   0.45743105E-01   0.84226421E-03  -0.49515714E-02
  7712.3330       0.46829652E-01   0.24682965       0.46829650E-01   0.46829650E-01  -0.73088491E-02  -0.22969417E-04
  7712.6440       0.41248164E-01   0.24124816       0.41248163E-01   0.41248163E-01   0.82813802E-03   0.39809131E-01
  7712.9530       0.47343098E-01   0.24734310       0.47343096E-01   0.47343096E-01   0.17372812E-01   0.42869761E-01
  7713.2350       0.51515496E-01   0.25151549       0.51515494E-01   0.51515494E-01   0.26164167E-01   0.46603908E-01
  7713.5380       0.62649135E-01   0.26264913       0.62649133E-01   0.62649133E-01   0.44636098E-01   0.56075001E-01
  7713.8530       0.79100605E-01   0.27910060       0.79100602E-01   0.79100602E-01   0.60818518E-01   0.49989962E-01
  7714.1610       0.10053907       0.30053907       0.10053907       0.10053907       0.75779844E-01   0.10978083E-01
  7714.4700       0.12585677       0.32585676       0.12585676       0.12585676       0.67591995E-01  -0.48904446E-01
  7714.7770       0.14217574       0.34217574       0.14217574       0.14217574       0.45654706E-01  -0.41440758E-01
  7715.0770       0.15356918       0.35356917       0.15356917       0.15356917       0.42437455E-01   0.78901623E-02
  7715.3860       0.16802015       0.36802014       0.16802014       0.16802014       0.50459814E-01  -0.39592535E-02
  7715.6700       0.18349185       0.38349184       0.18349184       0.18349184       0.40089618E-01  -0.53495879E-01
  7715.9720       0.19151267       0.39151266       0.19151266       0.19151266       0.19111229E-01  -0.23638212E-01
  7716.1370       0.19241679       0.39241678       0.19241678       0.19241678       0.29050573E-01   0.68946990E-01
  7716.2550       0.19973398       0.39973397       0.19973397       0.19973397       0.38623228E-01   0.18542157E-01
  7716.3670       0.20130013       0.40130012       0.20130012       0.20130012       0.33315269E-01   0.13143284
  7716.4990       0.20786290       0.40786290       0.20786290       0.20786290       0.70692840E-01   0.13881369
  7716.6200       0.21918542       0.41918541       0.21918541       0.21918541       0.68435132E-01  -0.36622796E-01
  7716.7330       0.22387673       0.42387672       0.22387672       0.22387672       0.62123106E-01  -0.11289543
  7716.8670       0.23452983       0.43452982       0.23452982       0.23452982       0.40549961E-01  -0.10086528
  7716.9880       0.23421697       0.43421696       0.23421696       0.23421696       0.36402459E-01   0.59506743E-01
  7717.1010       0.24304800       0.44304799       0.24304799       0.24304799       0.54474539E-01  -0.30890987E-01
  7717.2330       0.24756323       0.44756322       0.24756322       0.24756322       0.28834167E-01   0.69476846E-01
  7717.3500       0.25022771       0.45022770       0.25022770       0.25022770       0.71774274E-01   0.19827579
  7717.4620       0.26399954       0.46399953       0.26399953       0.26399953       0.74239324E-01  -0.11712829
  7717.5920       0.26819363       0.46819362       0.26819362       0.26819362       0.43429229E-01   0.20067831E-01
  7717.7100       0.27476998       0.47476997       0.27476997       0.27476997       0.79216146E-01   0.27153366
  7717.8420       0.28799766       0.48799765       0.28799765       0.28799765       0.11131264       0.95390799E-01
  7717.9600       0.30259815       0.50259813       0.30259813       0.30259813       0.10306385      -0.11085602
  7718.0740       0.31190848       0.51190846       0.31190846       0.31190846       0.85594048E-01  -0.47894326E-01
  7718.2060       0.32365428       0.52365427       0.32365427       0.32365427       0.91281841E-01  -0.38162590E-02
  7718.3280       0.33509406       0.53509405       0.33509405       0.33509405       0.84624718E-01  -0.64152556E-01
  7718.4410       0.34354109       0.54354108       0.34354108       0.34354108       0.76205991E-01  -0.22650931E-01
  7718.5730       0.35376453       0.55376452       0.35376452       0.35376452       0.79075240E-01   0.15372683
  7718.6930       0.36346805       0.56346804       0.36346804       0.36346804       0.11494515       0.23729539
  7718.8050       0.38043181       0.58043179       0.38043179       0.38043179       0.13412777      -0.77127681E-01
  7718.9360       0.39606110       0.59606108       0.39606108       0.39606108       0.96203126E-01  -0.59090494E-01
  7719.0560       0.40457879       0.60457878       0.40457878       0.40457878       0.11929606       0.13780251
  7719.1680       0.42373778       0.62373777       0.42373777       0.42373777       0.12817331       0.46319817E-01
  7719.2990       0.43572490       0.63572489       0.43572489       0.43572489       0.13055177       0.22307529
  7719.4200       0.45663683       0.65663681       0.45663681       0.45663681       0.18438828       0.14744230
  7719.5350       0.47924054       0.67924052       0.47924052       0.47924052       0.16534816      -0.20358418
  7719.6660       0.49731248       0.69731246       0.49731246       0.49731246       0.13430657      -0.12394752
  7719.7880       0.51322010       0.71322008       0.51322008       0.51322008       0.13398943       0.88357863E-01
  7719.9010       0.52879999       0.72879997       0.52879997       0.52879997       0.15507067       0.27528185
  7720.0340       0.55136749       0.75136747       0.55136747       0.55136747       0.20170877       0.22962229
  7720.1540       0.57983231       0.77983229       0.57983229       0.57983229       0.21316511       0.45942110E-02
  7720.2670       0.60103496       0.80103493       0.60103493       0.60103493       0.20277922      -0.15691116
  7720.3970       0.62910766       0.82910764       0.62910764       0.62910764       0.17503570      -0.16042079
  7720.5160       0.64461885       0.84461882       0.64461882       0.64461882       0.16283444      -0.88820912E-02
  7720.6460       0.66965344       0.86965341       0.66965341       0.66965341       0.17282406       0.11674489
  7720.7660       0.68782486       0.88782483       0.68782483       0.68782483       0.19202066       0.32041532
  7720.8790       0.71439425       0.91439423       0.71439423       0.71439423       0.24748083       0.98404981E-01
  7721.0130       0.74895262       0.94895260       0.74895260       0.74895260       0.21632669      -0.35798232
  7721.1330       0.76934123       0.96934120       0.76934120       0.76934120       0.15655332      -0.11492957
  7721.2460       0.78542955       0.98542952       0.78542952       0.78542952       0.18954810       0.33212050
  7721.3790       0.81597007        1.0159700       0.81597004       0.81597004       0.23825496       0.27475889
  7721.5000       0.84594631        1.0459463       0.84588424       0.84588424       0.25933686       0.31858478E-01
  7721.6120       0.87639556        2.2608260       0.87650730        2.0609377       0.24567799      -0.14425487
  7721.7440       0.90589174        2.2434246       0.90620832        2.0437412       0.22413868       0.53962459E-01
  7721.8620       0.93243023        2.2280046       0.93292993        2.0285044       0.25916860      -0.73931198E-01
  7721.9740       0.96550051        2.2134869       0.96617403        2.0141604       0.20713450      -0.39959260
  7722.1040       0.98255677        2.1967796       0.98343204        1.9976549       0.16246719       0.37071684E-01
  7722.2260        1.0064422        2.1812402        1.0075068        1.9823049       0.21647656       0.20493808
  7722.3580        1.0375418        2.1645790        1.0388113        1.9658485       0.21452146      -0.18165501
  7722.4790        1.0607162        2.1494442        1.0621734        1.9509014       0.17051785      -0.26588717
  7722.5930        1.0776135        2.1353052        1.0792476        1.9369394       0.15203798      -0.21596784
  7722.7240        1.0979655        2.1192013        1.0998029        1.9210387       0.11760573      -0.13479229
  7722.8460        1.1073678        2.1043410        1.1093945        1.9063678       0.11793553       0.18829207
  7722.9580        1.1255624        2.0908150        1.1277630        1.8930156       0.16166607       0.22006046
  7723.0510        1.1405093        2.0796678        1.1428542        1.8820127       0.16304792      -0.10603638
  7723.2130        1.1671396        2.0604315        1.1697359        1.8630279       0.13462679      -0.12030428
  7723.4060        1.1883018        2.0378139        1.1911976        1.8407097       0.12033990      -0.22006153E-01
  7723.6030        1.2140722        2.0150611        1.2172737        1.8182627       0.12604439      -0.38778487E-01
  7723.8000        1.2379633        1.9926430        1.2414706        1.7961503       0.10506118      -0.15340840
  7724.0000        1.2557815        1.9702235        1.2595991        1.7740412       0.65141259E-01  -0.22896815
  7724.1980        1.2638895        1.9483632        1.2680144        1.7524881       0.13931853E-01  -0.15343922
  7724.3960        1.2612985        1.9268337        1.2657306        1.7312659       0.43793293E-02   0.11911934E-01
  7724.5920        1.2656150        1.9058450        1.2703513        1.7105814       0.18625155E-01  -0.34855114E-01
  7724.7890        1.2686182        1.8850712        1.2736602        1.6901133      -0.93187304E-02  -0.12840396
  7725.0080        1.2617384        1.8623533        1.2671203        1.6677352      -0.34790891E-01  -0.33452232E-01
  7725.7230        1.2361235        1.7908985        1.2426150        1.5973900      -0.40563115E-01  -0.72364732E-02
  7726.5070        1.2009343        1.7172214        1.2086425        1.5249296      -0.45638365E-01   0.15791400E-02
  7727.3020        1.1640605        1.6473520        1.1730024        1.4562940      -0.38069653E-01   0.59070129E-02
  7728.0660        1.1415837        1.5846549        1.1517113        1.3947826      -0.36429332E-01   0.49535317E-02
  7728.8300        1.1083965        1.5261757        1.1197097        1.3374890      -0.30500656E-01   0.17594089E-01
  7729.5930        1.0950092        1.4718431        1.1075065        1.2843404      -0.95631572E-02   0.18724695E-01
  7730.3530        1.0938318        1.4216293        1.1075085        1.2353060      -0.19829460E-02   0.49492775E-02
  7731.1470        1.0919277        1.3731826        1.1068366        1.1880916      -0.18719799E-02   0.26086676E-02
  7731.9100        1.0909171        1.3303479        1.1070101        1.1464410       0.20787495E-02  -0.35545228E-02
  7732.6790        1.0951123        1.2907228        1.1123988        1.1080093      -0.73175088E-02  -0.78689992E-02
  7733.4410        1.0797140        1.2548304        1.0981830        1.0732994      -0.99686883E-02   0.49033474E-02
  7734.2140        1.0798104        1.2217067        1.0994790        1.0413753       0.20912953E-03  -0.65723839E-03
  7734.9760        1.0800350        1.1921540        1.1008861        1.0130051      -0.10977549E-01  -0.10782920E-01
  7735.7750        1.0626745        1.1643195        1.0847655       0.98641060      -0.16623008E-01   0.61225330E-02
  7736.5390        1.0540533        1.1405782        1.0773299       0.96385491      -0.14080302E-02   0.68937360E-02
  7737.3090        1.0605145        1.1193491        1.0849862       0.94382081      -0.60480167E-02  -0.12775422E-01
  7738.0780        1.0447454        1.1007093        1.0704104       0.92637435      -0.21069405E-01  -0.74744171E-02
  7738.8440        1.0281730        1.0845456        1.0550268       0.91139938      -0.17521247E-01   0.68926450E-02
  7739.6160        1.0177977        1.0705391        1.0458495       0.89859099      -0.10468517E-01   0.15720968E-02
  7740.3880        1.0120096        1.0586816        1.0412595       0.88793154      -0.15093930E-01  -0.69458263E-02
  7741.1610       0.99447756        1.0488173        1.0249270       0.87926685      -0.21199819E-01  -0.57140774E-02
  7741.9520       0.97885309        1.0406530        1.0105301       0.87233004      -0.24030747E-01  -0.11195452E-03
  7744.4520       0.91539238        1.0259354       0.95094910       0.86149215      -0.21568261E-01   0.16219009E-02
  7746.9690       0.87064512        1.0243018       0.91010793       0.86376467      -0.15893670E-01   0.17293330E-02
  7749.4530       0.83590813        1.0307916       0.87922582       0.87410928      -0.12919867E-01   0.97579526E-03
  7751.9350       0.80648506        1.0404986       0.85365452       0.88766812      -0.11047871E-01   0.10383442E-02
  7754.4550       0.78064669        1.0499515       0.83172688       0.90103170      -0.77260689E-02   0.20337894E-02
  7756.9490       0.76774655        1.0584184       0.82269715       0.91336904      -0.85045029E-03   0.26156350E-02
  7759.4300       0.77641569        1.0659901       0.83521651       0.92479094       0.52867151E-02   0.16987229E-02
  7761.9470       0.79416956        1.0728304       0.85687645       0.93553731       0.76397669E-02   0.12243053E-02
  7764.4680       0.81490484        1.0788588       0.88152403       0.94547798       0.11454765E-01   0.67045901E-03
  7766.9650       0.85164957        1.0840443       0.92214381       0.95453854       0.11004130E-01  -0.13794735E-03
  7769.4620       0.86985947        1.0884741       0.94422875       0.96284346       0.10765856E-01   0.72863111E-05
  7771.9870       0.90571570        1.0922118       0.98400349       0.97049962       0.11040722E-01  -0.10983484E-02
  7774.4880       0.92535014        1.0952048        1.0075192       0.97737387       0.52455572E-02  -0.17634781E-02
  7776.9970       0.93199594        1.0975246        1.0180587       0.98358733       0.22056965E-02  -0.70267680E-03
  7780.5620       0.93874754        1.0996961        1.0303427       0.99129136       0.97749833E-03  -0.87824386E-03
  7784.1490       0.93898701        1.1006177        1.0361488       0.99777952      -0.40755035E-02  -0.59278988E-03
  7787.6930       0.90968512        1.1003588        1.0123468        1.0030205      -0.32496863E-02   0.66958079E-03
  7791.2820       0.91580700        1.0989883        1.0240383        1.0072197       0.70061625E-03   0.25343367E-03
  7794.8620       0.91470784        1.0965866        1.0284949        1.0103737      -0.14328203E-02  -0.57703561E-03
  7798.4360       0.90555660        1.0932346        1.0248901        1.0125681      -0.34274965E-02  -0.27127718E-03
  7802.0150       0.89019096        1.0889987        1.0150787        1.0138865      -0.33732660E-02   0.26042141E-04
  7805.6140       0.88134330        1.0839293        1.0118162        1.0144023      -0.32405660E-02   0.13346727E-03
  7809.2040       0.86689453        1.0781407        1.0029387        1.0141849      -0.24137698E-02   0.44270869E-03
  7812.8090       0.86397622        1.0716703        1.0056149        1.0133090      -0.55276962E-04  -0.58844116E-04
  7816.3810       0.86649780        1.0646859        1.0136798        1.0118679      -0.28360940E-02  -0.48626505E-03
  7819.9940       0.84359889        1.0571187       0.99638787        1.0099077      -0.35490914E-02   0.54775905E-04
  7823.6050       0.84085917        1.0491290       0.99925200        1.0075218      -0.24403929E-02  -0.10748643E-03
  7827.2230       0.82595729        1.0407748       0.98996482        1.0047824      -0.43261108E-02   0.25804545E-04
  7830.8140       0.80967224        1.0322155       0.97925258        1.0017959      -0.22543679E-02   0.72399350E-03
  7834.4380       0.80969202        1.0233861       0.98489639       0.99859045       0.89750237E-03  -0.55735780E-04
  7838.0600       0.81617554        1.0144484       0.99700082       0.99527375      -0.26582294E-02  -0.37521408E-03
  7841.6900       0.79041454        1.0054573       0.97687316       0.99191594      -0.18235501E-02   0.84129781E-03
  7845.3200       0.80293656       0.99651208       0.99502851       0.98860405       0.34495927E-02   0.14526564E-02
