# XDI/1.0 Athena/0.9.26
# Element.edge:                  K
# Element.symbol:                Co
# Column.1:                      energy eV
# Column.2:                      norm
# Column.3:                      nbkg
# Column.4:                      flat
# Column.5:                      fbkg
# Column.6:                      nder
# Column.7:                      nsec
# Athena.e0:                     7721.54
# Athena.eshift:                 0
# Athena.rbkg:                   1.0
# Athena.importance:             1
# Athena.standard:               None
# Athena.bkg_kweight:            3
# Athena.edge_step:              1.1926440
# Athena.fixed_step:             no
# Athena.pre_edge_range:         -82.964 -19.904
# Athena.pre_edge_line:          -0.046223 + 0.000220658 * E
# Athena.normalization_range:    45 125.256
# Athena.post_edge_polynomial:   15.585959 - 0.00164938 * E + 0 * E^2 + 0 * E^3
# Athena.spline_range_energy:    0.000 125.180
# Athena.clamps:                 0 24
# Athena.spline_range_k:         0.000 5.732
# Athena.kweight:                2
# Athena.window:                 hanning
# Athena.phase_correction:       no
# Athena.k_range:                .4 5.35
# Athena.dk:                     .5
# Athena.r_range:                .4 5.1
# Athena.dr:                     .5
# Athena.window:                 hanning
# Athena.plot_multiplier:        1
# Athena.y_offset:               0.2
# ///
#------------------------
#   e         norm        nbkg        flat        fbkg        nder        nsec
  7600.0670      -0.21697230      -0.16972294E-01  -0.21697229      -0.21697229       0.12870225E-01  -0.55638937E-03
  7610.6410      -0.80882547E-01   0.11911746      -0.80882544E-01  -0.80882544E-01   0.69869634E-02  -0.41408994E-03
  7624.5560      -0.45868556E-01   0.15413145      -0.45868554E-01  -0.45868554E-01   0.27295760E-02  -0.21696716E-03
  7637.2000      -0.83877376E-02   0.19161226      -0.83877373E-02  -0.83877373E-02   0.12245326E-02  -0.12194127E-03
  7649.6990      -0.15080132E-01   0.18491987      -0.15080131E-01  -0.15080131E-01  -0.33639338E-03   0.10440503E-03
  7662.1990      -0.16797236E-01   0.18320276      -0.16797235E-01  -0.16797235E-01   0.38345539E-02   0.21985715E-04
  7674.7330       0.80914091E-01   0.28091409       0.80914089E-01   0.80914089E-01   0.21399702E-03  -0.29470645E-03
  7687.3310      -0.11419063E-01   0.18858094      -0.11419062E-01  -0.11419062E-01  -0.35720086E-02   0.72602912E-05
  7700.0100      -0.93755706E-02   0.19062443      -0.93755703E-02  -0.93755703E-02   0.39751540E-03   0.10651675E-02
  7700.3880      -0.62287041E-02   0.19377130      -0.62287039E-02  -0.62287039E-02   0.10335883E-01   0.65118634E-02
  7700.7190      -0.20474292E-02   0.19795257      -0.20474291E-02  -0.20474292E-02   0.50144266E-02  -0.23891565E-01
  7701.0710      -0.28038508E-02   0.19719615      -0.28038507E-02  -0.28038507E-02  -0.59820553E-02  -0.63320050E-02
  7701.4340      -0.63245987E-02   0.19367540      -0.63245985E-02  -0.63245985E-02   0.48704302E-03   0.15242526E-01
  7701.7980      -0.24497705E-02   0.19755023      -0.24497704E-02  -0.24497704E-02   0.50992610E-02  -0.55035580E-02
  7702.1550      -0.26480315E-02   0.19735197      -0.26480315E-02  -0.26480315E-02  -0.34810223E-02  -0.13531623E-01
  7702.5150      -0.49456635E-02   0.19505434      -0.49456633E-02  -0.49456633E-02  -0.46029125E-02   0.37038078E-02
  7702.8790      -0.59805402E-02   0.19401946      -0.59805400E-02  -0.59805400E-02  -0.79946551E-03   0.34881898E-02
  7703.2420      -0.55268749E-02   0.19447313      -0.55268747E-02  -0.55268747E-02  -0.20669985E-02   0.36673527E-02
  7703.6000      -0.74708461E-02   0.19252915      -0.74708459E-02  -0.74708459E-02   0.18446958E-02   0.13875697E-01
  7703.9610      -0.42005386E-02   0.19579946      -0.42005385E-02  -0.42005385E-02   0.79096277E-02   0.24115004E-02
  7704.3250      -0.17363661E-02   0.19826363      -0.17363660E-02  -0.17363660E-02   0.35930336E-02  -0.12944096E-01
  7704.6870      -0.15919962E-02   0.19840800      -0.15919961E-02  -0.15919962E-02  -0.14877859E-02  -0.10483101E-01
  7705.0200      -0.27703773E-02   0.19722962      -0.27703772E-02  -0.27703772E-02  -0.36927213E-02   0.44019937E-02
  7705.3810      -0.41547448E-02   0.19584526      -0.41547446E-02  -0.41547446E-02   0.15671977E-02   0.28490091E-01
  7705.7490      -0.16278901E-02   0.19837211      -0.16278901E-02  -0.16278901E-02   0.17076555E-01   0.32340732E-01
  7706.1120       0.83282171E-02   0.20832822       0.83282168E-02   0.83282168E-02   0.25208273E-01   0.16723597E-01
  7706.4710       0.16572483E-01   0.21657248       0.16572482E-01   0.16572482E-01   0.29150993E-01   0.93895721E-02
  7706.8310       0.29287781E-01   0.22928778       0.29287780E-01   0.29287780E-01   0.31959375E-01  -0.30830866E-02
  7707.1960       0.39743030E-01   0.23974303       0.39743029E-01   0.39743029E-01   0.26915755E-01  -0.20420140E-01
  7707.5570       0.48828619E-01   0.24882862       0.48828617E-01   0.48828617E-01   0.17134354E-01  -0.32195636E-01
  7707.9150       0.52062630E-01   0.25206263       0.52062629E-01   0.52062629E-01   0.37670923E-02  -0.21155991E-01
  7708.2800       0.51552226E-01   0.25155222       0.51552225E-01   0.51552225E-01   0.18385722E-02  -0.81574638E-02
  7708.6460       0.53406627E-01   0.25340662       0.53406625E-01   0.53406625E-01  -0.21960137E-02  -0.13235528E-01
  7708.9820       0.50010625E-01   0.25001062       0.50010623E-01   0.50010623E-01  -0.74527687E-02   0.85334000E-02
  7709.2900       0.48607044E-01   0.24860704       0.48607042E-01   0.48607042E-01   0.32994959E-02   0.22643728E-01
  7709.5960       0.52036515E-01   0.25203651       0.52036514E-01   0.52036514E-01   0.64504806E-02  -0.14421365E-01
  7709.9030       0.52561188E-01   0.25256119       0.52561187E-01   0.52561186E-01  -0.55408008E-02  -0.31232739E-01
  7710.2110       0.48628923E-01   0.24862892       0.48628921E-01   0.48628921E-01  -0.12757654E-01  -0.26220790E-02
  7710.5140       0.44766262E-01   0.24476626       0.44766260E-01   0.44766260E-01  -0.71428911E-02   0.20177025E-01
  7710.8230       0.44257474E-01   0.24425747       0.44257472E-01   0.44257472E-01  -0.40931438E-03   0.29893868E-01
  7711.1080       0.44523129E-01   0.24452313       0.44523128E-01   0.44523128E-01   0.10614067E-01   0.10015526E-01
  7711.4160       0.50551615E-01   0.25055161       0.50551613E-01   0.50551613E-01   0.55298926E-02  -0.23090273E-01
  7711.7250       0.47935073E-01   0.24793507       0.47935071E-01   0.47935071E-01  -0.36326315E-02  -0.59600639E-02
  7712.0290       0.48324812E-01   0.24832481       0.48324810E-01   0.48324810E-01   0.18763734E-02   0.58964353E-03
  7712.3330       0.49075908E-01   0.24907591       0.49075906E-01   0.49075906E-01  -0.32741283E-02   0.86538174E-02
  7712.6440       0.46311223E-01   0.24631122       0.46311221E-01   0.46311221E-01   0.71984711E-02   0.31348946E-01
  7712.9530       0.53538960E-01   0.25353896       0.53538958E-01   0.53538958E-01   0.16162218E-01   0.27323300E-01
  7713.2350       0.55863094E-01   0.25586309       0.55863092E-01   0.55863092E-01   0.23346541E-01   0.54892283E-01
  7713.5380       0.67196686E-01   0.26719668       0.67196684E-01   0.67196684E-01   0.48274204E-01   0.64501635E-01
  7713.8530       0.85696552E-01   0.28569655       0.85696549E-01   0.85696549E-01   0.63208552E-01   0.47999668E-01
  7714.1610       0.10657561       0.30657561       0.10657561       0.10657561       0.78177997E-01   0.20480200E-01
  7714.4700       0.13393238       0.33393237       0.13393237       0.13393237       0.75844835E-01  -0.42249392E-01
  7714.7770       0.15329603       0.35329603       0.15329603       0.15329603       0.52152371E-01  -0.62683187E-01
  7715.0770       0.16558887       0.36558886       0.16558886       0.16558886       0.37796141E-01  -0.71072114E-02
  7715.3860       0.17631388       0.37631388       0.17631388       0.17631388       0.47824079E-01   0.18954752E-01
  7715.6700       0.19394854       0.39394854       0.19394854       0.19394854       0.49036309E-01  -0.45570690E-01
  7715.9720       0.20504916       0.40504915       0.20504915       0.20504915       0.21119655E-01  -0.70119106E-01
  7716.1370       0.20381142       0.40381142       0.20381142       0.20381142       0.16290686E-01   0.83857447E-01
  7716.2550       0.20965942       0.40965942       0.20965942       0.20965942       0.44851312E-01   0.15872761
  7716.3670       0.21412722       0.41412722       0.21412722       0.21412722       0.52798037E-01   0.12677333
  7716.4990       0.22254214       0.42254214       0.22254214       0.22254214       0.75784004E-01   0.77176715E-01
  7716.6200       0.23330058       0.43330057       0.23330057       0.23330057       0.72323746E-01  -0.10533381
  7716.7330       0.23946590       0.43946589       0.23946589       0.23946589       0.51135892E-01  -0.19178545
  7716.8670       0.24593114       0.44593113       0.24593113       0.24593113       0.24952740E-01  -0.59445341E-01
  7716.9880       0.24582885       0.44582884       0.24582884       0.24582884       0.35977330E-01   0.13740758
  7717.1010       0.25434984       0.45434983       0.25434983       0.25434983       0.57106113E-01   0.41646271E-01
  7717.2330       0.25981985       0.45981984       0.25981984       0.25981984       0.46180667E-01   0.13077477
  7717.3500       0.26584882       0.46584882       0.26584882       0.26584882       0.89669031E-01   0.69365271E-01
  7717.4620       0.28035406       0.48035405       0.28035405       0.28035405       0.62065314E-01  -0.15212225
  7717.5920       0.28086863       0.48086862       0.28086862       0.28086862       0.52855447E-01   0.10667827
  7717.7100       0.29346221       0.49346220       0.29346220       0.29346220       0.88521525E-01   0.16320208
  7717.8420       0.30299901       0.50299900       0.30299900       0.30299900       0.93655966E-01   0.70165400E-01
  7717.9600       0.31687620       0.51687619       0.31687619       0.31687619       0.10606288       0.55710096E-01
  7718.0740       0.32760560       0.52760559       0.32760559       0.32760559       0.10658071      -0.61262729E-01
  7718.2060       0.34309505       0.54309504       0.34309504       0.34309504       0.90992244E-01  -0.14123464
  7718.3280       0.35071763       0.55071762       0.35071762       0.35071762       0.70707109E-01   0.63098448E-01
  7718.4410       0.35971122       0.55971121       0.35971121       0.35971121       0.10582038       0.14097059
  7718.5730       0.37664362       0.57664361       0.37664361       0.37664361       0.10524490      -0.34447518E-01
  7718.6930       0.38623294       0.58623293       0.38623293       0.38623293       0.97139605E-01  -0.34309757E-02
  7718.8050       0.39918001       0.59918000       0.39918000       0.39918000       0.10444892       0.12544987
  7718.9360       0.41161403       0.61161401       0.41161401       0.41161401       0.12762392       0.18451726
  7719.0560       0.43121361       0.63121360       0.43121360       0.43121360       0.15076275      -0.19511063E-01
  7719.1680       0.44659098       0.64659097       0.44659097       0.44659097       0.12309736      -0.79496789E-01
  7719.2990       0.46112627       0.66112626       0.46112626       0.46112626       0.13144503       0.14732895
  7719.4200       0.47971513       0.67971511       0.47971511       0.47971511       0.16022425       0.82544704E-01
  7719.5350       0.49893919       0.69893918       0.49893918       0.49893918       0.15092558      -0.56522231E-01
  7719.6660       0.51684282       0.71684281       0.51684281       0.51684281       0.14631978      -0.60066264E-01
  7719.7880       0.53595810       0.73595808       0.53595808       0.53595808       0.13572881       0.11422985
  7719.9010       0.54873909       0.74873908       0.54873908       0.54873908       0.17316380       0.32701004
  7720.0340       0.57855639       0.77855637       0.57855637       0.57855637       0.21617328       0.14189873
  7720.1540       0.60343093       0.80343091       0.60343091       0.60343091       0.20906418      -0.13618612
  7720.2670       0.62726835       0.82726833       0.62726833       0.62726833       0.18444192      -0.13878669
  7720.3970       0.64825032       0.84825030       0.64825030       0.64825030       0.17533901      -0.94889904E-01
  7720.5160       0.67092776       0.87092774       0.67092774       0.67092774       0.16081433      -0.41431711E-02
  7720.6460       0.68829309       0.88829307       0.68829307       0.68829307       0.17430736       0.17253617
  7720.7660       0.71450460       0.91450458       0.71450458       0.71450458       0.20394837       0.17549182
  7720.8790       0.73581306       0.93581304       0.73581304       0.73581304       0.21519696       0.84104088E-01
  7721.0130       0.76765825       0.96765822       0.76765822       0.76765822       0.22472208      -0.18467653
  7721.1330       0.79289247       0.99289244       0.79289244       0.79289244       0.16828912      -0.11044955
  7721.2460       0.80686961        1.0068696       0.80686959       0.80686959       0.19898734       0.33391852
  7721.3790       0.84184336        1.0418433       0.84184333       0.84184333       0.25043307       0.21191123
  7721.5000       0.87047961        1.0704796       0.87041690       0.87041690       0.25281279      -0.14963364
  7721.6120       0.90074874        2.2369388       0.90086163        2.0370517       0.21556843      -0.22928884
  7721.7440       0.92307831        2.2198947       0.92339818        2.0202146       0.19686632       0.20466589
  7721.8620       0.94996532        2.2047914       0.95047020        2.0052963       0.26673491       0.12178298E-01
  7721.9740       0.98442734        2.1905718       0.98510784        1.9912523       0.19966732      -0.55689736
  7722.1040       0.99828481        2.1742076       0.99916915        1.9750919       0.13196575       0.22004260E-01
  7722.2260        1.0176827        2.1589873        1.0187583        1.9600630       0.20521240       0.29014081
  7722.3580        1.0504088        2.1426683        1.0516914        1.9439509       0.20566151      -0.19147363
  7722.4790        1.0697151        2.1278443        1.0711874        1.9293166       0.15676957      -0.25890461
  7722.5930        1.0872496        2.1139957        1.0889007        1.9156468       0.14481893      -0.20102156
  7722.7240        1.1051957        2.0982224        1.1070522        1.9000790       0.10751929      -0.13208313
  7722.8460        1.1144520        2.0836674        1.1164998        1.8857152       0.11140190       0.15288666
  7722.9580        1.1312638        2.0704192        1.1334871        1.8726426       0.14329476       0.17718286
  7723.0510        1.1438274        2.0595009        1.1461966        1.8618702       0.14772439      -0.87706695E-01
  7723.2130        1.1689335        2.0406598        1.1715567        1.8432830       0.12092956      -0.11452587
  7723.4060        1.1867574        2.0185067        1.1896832        1.8214325       0.10706770      -0.58194164E-02
  7723.6030        1.2106899        1.9962212        1.2139246        1.7994560       0.11865998      -0.54355866E-01
  7723.8000        1.2335094        1.9742637        1.2370530        1.7778074       0.85651492E-01  -0.17245433
  7724.0000        1.2446935        1.9523047        1.2485507        1.7561620       0.50195616E-01  -0.17456433
  7724.1980        1.2534873        1.9308935        1.2576550        1.7350612       0.16174888E-01  -0.11667524
  7724.3960        1.2510988        1.9098062        1.2555769        1.7142844       0.39922194E-02  -0.35101021E-02
  7724.5920        1.2550602        1.8892488        1.2598457        1.6940343       0.14791908E-01  -0.42947252E-01
  7724.7890        1.2569120        1.8689017        1.2620063        1.6739961      -0.12886051E-01  -0.11317422
  7725.0080        1.2496996        1.8466506        1.2551374        1.6520883      -0.32288566E-01  -0.25859103E-01
  7725.7230        1.2267545        1.7766640        1.2333133        1.5832228      -0.37038452E-01  -0.66654830E-02
  7726.5070        1.1941790        1.7045009        1.2019671        1.5122891      -0.42280125E-01   0.17494253E-02
  7727.3020        1.1599942        1.6360675        1.1690288        1.4451022      -0.34276110E-01   0.57684971E-02
  7728.0660        1.1407425        1.5746593        1.1509751        1.3848919      -0.33287038E-01   0.38583995E-02
  7728.8300        1.1091316        1.5173822        1.1205621        1.3288128      -0.28380475E-01   0.14266911E-01
  7729.5930        1.0974055        1.4641667        1.1100324        1.2767936      -0.11501464E-01   0.15728355E-01
  7730.3530        1.0916148        1.4149854        1.1054334        1.2288039      -0.44261902E-02   0.55029032E-02
  7731.1470        1.0905272        1.3675349        1.1055908        1.1825985      -0.29499525E-02   0.22872057E-02
  7731.9100        1.0870218        1.3255812        1.1032816        1.1418411      -0.86501094E-03  -0.31627000E-02
  7732.6790        1.0892021        1.2867710        1.1066677        1.1042367      -0.77952088E-02  -0.49360870E-02
  7733.4410        1.0750873        1.2516168        1.0937477        1.0702772      -0.84221601E-02   0.55461645E-02
  7734.2140        1.0762740        1.2191743        1.0961465        1.0390468       0.71815373E-03  -0.10173916E-02
  7734.9760        1.0761897        1.1902293        1.0972569        1.0112966      -0.99838562E-02  -0.10314169E-01
  7735.7750        1.0606892        1.1629671        1.0830093       0.98528721      -0.15382265E-01   0.56029821E-02
  7736.5390        1.0521472        1.1397137        1.0756652       0.96323179      -0.12263951E-02   0.61453045E-02
  7737.3090        1.0588079        1.1189209        1.0835333       0.94364625      -0.59553676E-02  -0.12226546E-01
  7738.0780        1.0429819        1.1006637        1.0689130       0.92659491      -0.20043049E-01  -0.73338665E-02
  7738.8440        1.0280419        1.0848316        1.0551741       0.91196387      -0.17212853E-01   0.48480692E-02
  7739.6160        1.0165085        1.0711122        1.0448512       0.89945489      -0.12586719E-01   0.14668525E-02
  7740.3880        1.0086080        1.0594972        1.0381611       0.88905038      -0.14948032E-01  -0.49433386E-02
  7741.1610       0.99341379        1.0498341        1.0241790       0.88059935      -0.20224177E-01  -0.59625539E-02
  7741.9520       0.97697736        1.0418356        1.0089828       0.87384113      -0.24273467E-01  -0.35636699E-03
  7744.4520       0.91352981        1.0274116       0.94945521       0.86333699      -0.21396981E-01   0.16600317E-02
  7746.9690       0.86962871        1.0257974       0.90950070       0.86566939      -0.15945088E-01   0.17744067E-02
  7749.4530       0.83378843        1.0321336       0.87755526       0.87590049      -0.12523173E-01   0.10953365E-02
  7751.9350       0.80743863        1.0416141       0.85509718       0.88927268      -0.10505647E-01   0.10390066E-02
  7754.4550       0.78123918        1.0508373       0.83284902       0.90244718      -0.73260616E-02   0.20390089E-02
  7756.9490       0.77070576        1.0590876       0.82622612       0.91460803      -0.28205616E-03   0.25401287E-02
  7759.4300       0.77983595        1.0664541       0.83924645       0.92586464       0.53110788E-02   0.15565450E-02
  7761.9470       0.79725053        1.0730965       0.86060762       0.93645357       0.74975557E-02   0.11556996E-02
  7764.4680       0.81760864        1.0789367       0.88491859       0.94624664       0.11133494E-01   0.62159181E-03
  7766.9650       0.85311840        1.0839455       0.92434358       0.95517075       0.10616703E-01  -0.54809149E-04
  7769.4620       0.87062846        1.0882082       0.94576886       0.96334868       0.10859777E-01  -0.19141383E-04
  7771.9870       0.90765620        1.0917862       0.98675573       0.97088580       0.10520575E-01  -0.12315782E-02
  7774.4880       0.92350487        1.0946302        1.0065259       0.97765123       0.46698646E-02  -0.16954310E-02
  7776.9970       0.93105223        1.0968092        1.0180073       0.98376434       0.20264663E-02  -0.61434826E-03
  7780.5620       0.93581362        1.0987956        1.0283585       0.99134057       0.93831326E-03  -0.86076545E-03
  7784.1490       0.93776304        1.0995478        1.0359323       0.99771703      -0.41297282E-02  -0.56184433E-03
  7787.6930       0.90636453        1.0991375        1.0100906        1.0028636      -0.30681987E-02   0.70216764E-03
  7791.2820       0.91587758        1.0976291        1.0252311        1.0069827       0.87883354E-03   0.19137133E-03
  7794.8620       0.91266489        1.0951048        1.0276318        1.0100717      -0.16962576E-02  -0.61589269E-03
  7798.4360       0.90374255        1.0916445        1.0243134        1.0122154      -0.35272628E-02  -0.23467398E-03
  7802.0150       0.88743438        1.0873137        1.0136170        1.0134963      -0.33748806E-02   0.61115230E-04
  7805.6140       0.87951766        1.0821617        1.0113434        1.0139875      -0.30885776E-02   0.99273469E-04
  7809.2040       0.86523060        1.0763030        1.0026854        1.0137578      -0.26612037E-02   0.42031764E-03
  7812.8090       0.86037030        1.0697737        1.0034776        1.0128810      -0.64392194E-04  -0.13629458E-04
  7816.3810       0.86476845        1.0627417        1.0134766        1.0114499      -0.27590223E-02  -0.47490551E-03
  7819.9940       0.84054673        1.0551367       0.99491993        1.0095099      -0.34765883E-02   0.90801506E-04
  7823.6050       0.83965358        1.0471188       0.99968874        1.0071539      -0.21030722E-02  -0.13659078E-03
  7827.2230       0.82534362        1.0387452       0.99105170        1.0044533      -0.44640030E-02   0.15066908E-04
  7830.8140       0.80747258        1.0301748       0.97881126        1.0015135      -0.19944549E-02   0.76341562E-03
  7834.4380       0.81095362        1.0213417       0.98797463       0.99836269       0.10440406E-02  -0.13725786E-03
  7838.0600       0.81503770        1.0124072       0.99773791       0.99510744      -0.29890253E-02  -0.42001507E-03
  7841.6900       0.78927721        1.0034254       0.97766916       0.99181737      -0.20019086E-02   0.83770808E-03
  7845.3200       0.80050384       0.99449498       0.99458753       0.98857870       0.30927354E-02   0.14034832E-02
