# XDI/1.0 Athena/0.9.26
# Element.edge:                  K
# Element.symbol:                Co
# Column.1:                      energy eV
# Column.2:                      norm
# Column.3:                      nbkg
# Column.4:                      flat
# Column.5:                      fbkg
# Column.6:                      nder
# Column.7:                      nsec
# Athena.e0:                     7721.54
# Athena.eshift:                 0
# Athena.rbkg:                   1.0
# Athena.importance:             1
# Athena.standard:               None
# Athena.bkg_kweight:            3
# Athena.edge_step:              1.1929797
# Athena.fixed_step:             no
# Athena.pre_edge_range:         -82.964 -19.904
# Athena.pre_edge_line:          0.020046 + 0.000212042 * E
# Athena.normalization_range:    45 125.256
# Athena.post_edge_polynomial:   15.564400 - 0.00164657 * E + 0 * E^2 + 0 * E^3
# Athena.spline_range_energy:    0.000 125.180
# Athena.clamps:                 0 24
# Athena.spline_range_k:         0.000 5.732
# Athena.kweight:                2
# Athena.window:                 hanning
# Athena.phase_correction:       no
# Athena.k_range:                .4 5.35
# Athena.dk:                     .5
# Athena.r_range:                .4 5.1
# Athena.dr:                     .5
# Athena.window:                 hanning
# Athena.plot_multiplier:        1
# Athena.y_offset:               0.2
# ///
#------------------------
#   e         norm        nbkg        flat        fbkg        nder        nsec
  7600.0670      -0.21297228      -0.12972282E-01  -0.21297228      -0.21297228       0.12211982E-01  -0.50821785E-03
  7610.6410      -0.83842789E-01   0.11615721      -0.83842788E-01  -0.83842788E-01   0.68380863E-02  -0.38175244E-03
  7624.5560      -0.45514390E-01   0.15448561      -0.45514389E-01  -0.45514389E-01   0.28632462E-02  -0.21373261E-03
  7637.2000      -0.77978321E-02   0.19220217      -0.77978320E-02  -0.77978320E-02   0.11615619E-02  -0.12645737E-03
  7649.6990      -0.16309240E-01   0.18369076      -0.16309240E-01  -0.16309240E-01  -0.31627135E-03   0.10731643E-03
  7662.1990      -0.15704300E-01   0.18429570      -0.15704300E-01  -0.15704300E-01   0.38443652E-02   0.20524309E-04
  7674.7330       0.79930600E-01   0.27993060       0.79930598E-01   0.79930598E-01   0.19753419E-03  -0.29398315E-03
  7687.3310      -0.10739871E-01   0.18926013      -0.10739870E-01  -0.10739870E-01  -0.35440192E-02   0.62584418E-05
  7700.0100      -0.96515739E-02   0.19034843      -0.96515737E-02  -0.96515737E-02   0.35572882E-03   0.10409020E-02
  7700.3880      -0.60951193E-02   0.19390488      -0.60951193E-02  -0.60951193E-02   0.10047038E-01   0.69671932E-02
  7700.7190      -0.25282237E-02   0.19747178      -0.25282237E-02  -0.25282237E-02   0.52954688E-02  -0.22320834E-01
  7701.0710      -0.24783141E-02   0.19752169      -0.24783141E-02  -0.24783141E-02  -0.51980911E-02  -0.72195510E-02
  7701.4340      -0.62448589E-02   0.19375514      -0.62448588E-02  -0.62448588E-02   0.13348986E-03   0.13762949E-01
  7701.7980      -0.23812670E-02   0.19761873      -0.23812670E-02  -0.23812670E-02   0.48075725E-02  -0.43579105E-02
  7702.1550      -0.27785991E-02   0.19722140      -0.27785991E-02  -0.27785991E-02  -0.30085636E-02  -0.13887819E-01
  7702.5150      -0.45384071E-02   0.19546159      -0.45384071E-02  -0.45384071E-02  -0.51499937E-02   0.12373042E-02
  7702.8790      -0.65071945E-02   0.19349281      -0.65071945E-02  -0.65071945E-02  -0.21127553E-02   0.64691691E-02
  7703.2420      -0.60743803E-02   0.19392562      -0.60743802E-02  -0.60743802E-02  -0.44690774E-03   0.40942447E-02
  7703.6000      -0.68294150E-02   0.19317059      -0.68294149E-02  -0.68294149E-02   0.83919509E-03   0.11764080E-01
  7703.9610      -0.54709990E-02   0.19452900      -0.54709989E-02  -0.54709989E-02   0.80114661E-02   0.60161621E-02
  7704.3250      -0.10211021E-02   0.19897890      -0.10211021E-02  -0.10211021E-02   0.52009126E-02  -0.12697214E-01
  7704.6870      -0.16951364E-02   0.19830486      -0.16951364E-02  -0.16951364E-02  -0.12067111E-02  -0.12014232E-01
  7705.0200      -0.18597663E-02   0.19814023      -0.18597663E-02  -0.18597663E-02  -0.31489787E-02   0.23402771E-02
  7705.3810      -0.38805277E-02   0.19611947      -0.38805276E-02  -0.38805276E-02   0.41744119E-03   0.27168991E-01
  7705.7490      -0.15554517E-02   0.19844455      -0.15554517E-02  -0.15554517E-02   0.16657216E-01   0.33318860E-01
  7706.1120       0.82958968E-02   0.20829590       0.82958967E-02   0.82958967E-02   0.24773528E-01   0.20315584E-01
  7706.4710       0.16331035E-01   0.21633103       0.16331035E-01   0.16331035E-01   0.31325067E-01   0.11969954E-01
  7706.8310       0.30818620E-01   0.23081862       0.30818620E-01   0.30818620E-01   0.33379924E-01  -0.76238509E-02
  7707.1960       0.40531480E-01   0.24053148       0.40531480E-01   0.40531480E-01   0.25797776E-01  -0.22900436E-01
  7707.5570       0.49547805E-01   0.24954780       0.49547805E-01   0.49547805E-01   0.16754208E-01  -0.31341142E-01
  7707.9150       0.52577756E-01   0.25257775       0.52577755E-01   0.52577755E-01   0.32634946E-02  -0.22148338E-01
  7708.2800       0.51907312E-01   0.25190731       0.51907311E-01   0.51907311E-01   0.74095939E-03  -0.52262999E-02
  7708.6460       0.53119397E-01   0.25311940       0.53119396E-01   0.53119396E-01  -0.55693066E-03  -0.12933687E-01
  7708.9820       0.51516347E-01   0.25151635       0.51516346E-01   0.51516346E-01  -0.83384889E-02  -0.12182738E-02
  7709.2900       0.47749410E-01   0.24774941       0.47749409E-01   0.47749409E-01  -0.13414990E-02   0.26683936E-01
  7709.5960       0.50692666E-01   0.25069267       0.50692666E-01   0.50692666E-01   0.80454476E-02  -0.22604076E-06
  7709.9030       0.52681269E-01   0.25268127       0.52681269E-01   0.52681269E-01  -0.13416376E-02  -0.36066587E-01
  7710.2110       0.49867559E-01   0.24986756       0.49867559E-01   0.49867559E-01  -0.14135503E-01  -0.11018627E-01
  7710.5140       0.44044477E-01   0.24404448       0.44044476E-01   0.44044476E-01  -0.80740187E-02   0.26696636E-01
  7710.8230       0.44926260E-01   0.24492626       0.44926259E-01   0.44926259E-01   0.22028379E-02   0.32636757E-01
  7711.1080       0.45352963E-01   0.24535296       0.45352962E-01   0.45352962E-01   0.11312215E-01   0.80687340E-02
  7711.4160       0.51634403E-01   0.25163440       0.51634403E-01   0.51634403E-01   0.69875972E-02  -0.21432983E-01
  7711.7250       0.49664310E-01   0.24966431       0.49664309E-01   0.49664309E-01  -0.19119356E-02  -0.11590281E-01
  7712.0290       0.50462387E-01   0.25046239       0.50462386E-01   0.50462386E-01  -0.11724528E-03  -0.56422573E-02
  7712.3330       0.49593025E-01   0.24959302       0.49593024E-01   0.49593024E-01  -0.53424281E-02   0.15349291E-01
  7712.6440       0.47176793E-01   0.24717679       0.47176793E-01   0.47176793E-01   0.93225688E-02   0.38298596E-01
  7712.9530       0.55373018E-01   0.25537302       0.55373017E-01   0.55373017E-01   0.18402702E-01   0.27792858E-01
  7713.2350       0.58052790E-01   0.25805279       0.58052789E-01   0.58052789E-01   0.25748148E-01   0.46481686E-01
  7713.5380       0.70435684E-01   0.27043568       0.70435683E-01   0.70435683E-01   0.45594488E-01   0.59300964E-01
  7713.8530       0.86230183E-01   0.28623018       0.86230182E-01   0.86230182E-01   0.62396144E-01   0.52523281E-01
  7714.1610       0.10930848       0.30930848       0.10930848       0.10930848       0.78316492E-01   0.15933891E-01
  7714.4700       0.13455146       0.33455146       0.13455146       0.13455146       0.72227354E-01  -0.43121382E-01
  7714.7770       0.15380053       0.35380053       0.15380053       0.15380053       0.51753721E-01  -0.56784263E-01
  7715.0770       0.16596597       0.36596597       0.16596597       0.16596597       0.37759307E-01  -0.49897638E-02
  7715.3860       0.17679595       0.37679595       0.17679595       0.17679595       0.48714954E-01   0.20103739E-01
  7715.6700       0.19485394       0.39485393       0.19485393       0.19485393       0.49680824E-01  -0.28534510E-01
  7715.9720       0.20590891       0.40590891       0.20590891       0.20590891       0.31993732E-01  -0.65945053E-01
  7716.1370       0.20979501       0.40979501       0.20979501       0.20979501       0.18884484E-01  -0.41559040E-02
  7716.2550       0.21125322       0.41125322       0.21125322       0.21125322       0.30817611E-01   0.15306707
  7716.3670       0.21688306       0.41688306       0.21688306       0.21688306       0.54089909E-01   0.13336072
  7716.4990       0.22445116       0.42445116       0.22445116       0.22445116       0.63357626E-01   0.55634872E-01
  7716.6200       0.23291254       0.43291253       0.23291253       0.23291253       0.68165532E-01  -0.56921492E-01
  7716.7330       0.24040189       0.44040189       0.24040189       0.24040189       0.50037997E-01  -0.62158713E-01
  7716.8670       0.24527192       0.44527192       0.24527192       0.24527192       0.52812330E-01  -0.39514694E-01
  7716.9880       0.25386904       0.45386903       0.25386903       0.25386903       0.39961750E-01  -0.11363560
  7717.1010       0.25462297       0.45462297       0.25462297       0.25462297       0.26221599E-01   0.11347326
  7717.2330       0.26029333       0.46029333       0.26029333       0.26029333       0.67762700E-01   0.33130903
  7717.3500       0.27149589       0.47149588       0.27149588       0.27149588       0.10871755      -0.41398481E-01
  7717.4620       0.28518965       0.48518964       0.28518964       0.28518964       0.58282448E-01  -0.26523300
  7717.5920       0.28560024       0.48560023       0.28560023       0.28560023       0.44531163E-01   0.15945470
  7717.7100       0.29623338       0.49623337       0.29623337       0.29623337       0.97827213E-01   0.16245636
  7717.8420       0.31005704       0.51005704       0.31005704       0.31005704       0.85145254E-01  -0.67152160E-01
  7717.9600       0.31751969       0.51751969       0.31751969       0.31751969       0.81039173E-01   0.17834975
  7718.0740       0.32885813       0.52885812       0.32885812       0.32885812       0.12652240       0.14385067
  7718.2060       0.34864420       0.54864419       0.34864419       0.34864419       0.11642644      -0.25509631
  7718.3280       0.35843044       0.55843044       0.35843044       0.35843044       0.61727933E-01  -0.15101974
  7718.4410       0.36315026       0.56315026       0.36315026       0.36315026       0.80936800E-01   0.20455259
  7718.5730       0.37825996       0.57825995       0.37825995       0.37825995       0.11184332       0.47312631E-01
  7718.6930       0.39133478       0.59133477       0.39133477       0.39133477       0.92859583E-01  -0.87657770E-01
  7718.8050       0.39980338       0.59980338       0.39980338       0.39980338       0.91506716E-01   0.19649243
  7718.9360       0.41357091       0.61357091       0.41357091       0.41357091       0.14060724       0.33429654
  7719.0560       0.43509580       0.63509580       0.43509579       0.43509580       0.17541515      -0.65307016E-01
  7719.1680       0.45426723       0.65426722       0.45426722       0.45426722       0.12545601      -0.27653924
  7719.2990       0.46558161       0.66558161       0.46558161       0.46558161       0.10821611       0.10097381
  7719.4200       0.48153769       0.68153768       0.48153768       0.48153768       0.15090141       0.15588778
  7719.5350       0.50119435       0.70119434       0.50119434       0.50119434       0.14500563      -0.50202438E-01
  7719.6660       0.51720907       0.71720906       0.51720906       0.51720906       0.13855162       0.11830317
  7719.7880       0.53624790       0.73624790       0.53624790       0.53624790       0.17493633       0.23725535
  7719.9010       0.55831911       0.75831910       0.55831910       0.55831910       0.19430662      -0.14860276E-02
  7720.0340       0.58404733       0.78404733       0.58404733       0.58404733       0.17457077       0.88251692E-01
  7720.1540       0.60248551       0.80248551       0.60248551       0.60248551       0.21663430       0.79706995E-01
  7720.2670       0.63452313       0.83452312       0.63452312       0.63452312       0.19314250      -0.31213019
  7720.3970       0.64941914       0.84941913       0.64941913       0.64941913       0.14078666      -0.13520093
  7720.5160       0.66957900       0.86957900       0.66957900       0.66957900       0.15947747       0.18363351
  7720.6460       0.68912903       0.88912902       0.68912902       0.68912902       0.18651141       0.33623353
  7720.7660       0.71620686       0.91620685       0.71620685       0.71620685       0.24353585       0.99232152E-01
  7720.8790       0.74587288       0.94587287       0.74587287       0.74587287       0.20963250      -0.19763727
  7721.0130       0.76798608       0.96798607       0.76798607       0.76798607       0.19471945      -0.44110483E-01
  7721.1330       0.79533162       0.99533161       0.79533161       0.79533161       0.19842843       0.11054487E-01
  7721.2460       0.81421991        1.0142199       0.81421990       0.81421990       0.19729514       0.11230914
  7721.3790       0.84386623        1.0438662       0.84386622       0.84386622       0.22605648       0.21127942
  7721.5000       0.87163825        1.0716382       0.87157594       0.87157594       0.25096011      -0.52198915E-01
  7721.6120       0.90233994        2.2289366       0.90245211        2.0290488       0.21389414      -0.14815211
  7721.7440       0.92382842        2.2120274       0.92414625        2.0123452       0.21481100       0.21189016
  7721.8620       0.95604269        2.1970435       0.95654435        1.9975452       0.26686668      -0.84613655E-01
  7721.9740       0.98520776        2.1829363       0.98588391        1.9836124       0.19534986      -0.54790699
  7722.1040        1.0033174        2.1667013        1.0041960        1.9675800       0.13427318       0.34339145E-02
  7722.2260        1.0190446        2.1516012        1.0201134        1.9526700       0.19621520       0.26951153
  7722.3580        1.0531560        2.1354109        1.0544304        1.9366853       0.20272911      -0.17257024
  7722.4790        1.0703351        2.1207038        1.0717980        1.9221667       0.15255493      -0.25306830
  7722.5930        1.0890064        2.1069643        1.0906470        1.9086049       0.14325806      -0.20657468
  7722.7240        1.1054333        2.0913153        1.1072779        1.8931600       0.10194414      -0.15238516
  7722.8460        1.1147983        2.0768749        1.1168330        1.8789096       0.10470462       0.17681298
  7722.9580        1.1299342        2.0637309        1.1321434        1.8659401       0.14331837       0.20150946
  7723.0510        1.1441786        2.0528984        1.1465326        1.8552525       0.14601405      -0.11938594
  7723.2130        1.1671678        2.0342053        1.1697742        1.8368118       0.11287496      -0.11924740
  7723.4060        1.1842492        2.0122261        1.1871563        1.8151332       0.10368123      -0.43228380E-02
  7723.6030        1.2076034        1.9901154        1.2108175        1.7933295       0.11118905      -0.27154054E-01
  7723.8000        1.2280577        1.9683298        1.2315786        1.7718508       0.92982531E-01  -0.12255095
  7724.0000        1.2445175        1.9465427        1.2483501        1.7503753       0.62536325E-01  -0.18429169
  7724.1980        1.2529471        1.9252988        1.2570882        1.7294398       0.19634440E-01  -0.15350563
  7724.3960        1.2522927        1.9043762        1.2567423        1.7088257       0.17480977E-02  -0.30104441E-01
  7724.5920        1.2536359        1.8839790        1.2583908        1.6887339       0.77732904E-02  -0.24976046E-01
  7724.7890        1.2553476        1.8637905        1.2604095        1.6688523      -0.80674886E-02  -0.95176404E-01
  7725.0080        1.2502798        1.8417124        1.2556828        1.6471154      -0.31820094E-01  -0.31185189E-01
  7725.7230        1.2256277        1.7722687        1.2321446        1.5787856      -0.37194455E-01  -0.60556072E-02
  7726.5070        1.1945253        1.7006626        1.2022637        1.5084010      -0.40897449E-01   0.73853396E-03
  7727.3020        1.1610506        1.6327543        1.1700276        1.4417313      -0.36028310E-01   0.43493690E-02
  7728.0660        1.1383572        1.5718144        1.1485244        1.3819817      -0.34116783E-01   0.56438691E-02
  7728.8300        1.1089202        1.5149714        1.1202777        1.3263289      -0.27404478E-01   0.14781626E-01
  7729.5930        1.0965105        1.4621561        1.1090568        1.2747024      -0.11545240E-01   0.14438227E-01
  7730.3530        1.0913368        1.4133418        1.1050671        1.2270721      -0.54150577E-02   0.48418586E-02
  7731.1470        1.0880955        1.3662423        1.1030629        1.1812096      -0.40209922E-02   0.40604157E-02
  7731.9100        1.0850761        1.3245956        1.1012321        1.1407517       0.90700947E-03  -0.23117300E-02
  7732.6790        1.0894851        1.2860664        1.1068392        1.1034205      -0.75625626E-02  -0.62474245E-02
  7733.4410        1.0734978        1.2511634        1.0920391        1.0697047      -0.86577975E-02   0.46342799E-02
  7734.2140        1.0761953        1.2189495        1.0959409        1.0386951      -0.44894289E-03  -0.17259123E-02
  7734.9760        1.0728087        1.1902050        1.0937414        1.0111378      -0.11307073E-01  -0.90994278E-02
  7735.7750        1.0585450        1.1631280        1.0807226       0.98530558      -0.14653150E-01   0.77447168E-02
  7736.5390        1.0499058        1.1400289        1.0732736       0.96339679       0.79791941E-03   0.67217156E-02
  7737.3090        1.0597690        1.1193702        1.0843365       0.94393773      -0.43420379E-02  -0.14793689E-01
  7738.0780        1.0432234        1.1012270        1.0689889       0.92699259      -0.21969567E-01  -0.85554423E-02
  7738.8440        1.0260457        1.0854896        1.0530047       0.91244857      -0.17474642E-01   0.74931904E-02
  7739.6160        1.0163474        1.0718479        1.0445091       0.90000957      -0.10445040E-01   0.15002109E-02
  7740.3880        1.0099186        1.0602940        1.0392830       0.88965850      -0.15158316E-01  -0.69983837E-02
  7741.1610       0.99292779        1.0506769        1.0234965       0.88124563      -0.21257543E-01  -0.54788785E-02
  7741.9520       0.97667179        1.0427108        1.0084729       0.87451187      -0.23727282E-01  -0.10808493E-03
  7744.4520       0.91484131        1.0283070       0.95053731       0.86400303      -0.21613251E-01   0.16015970E-02
  7746.9690       0.86823811        1.0266204       0.90785550       0.86623777      -0.15692070E-01   0.18785451E-02
  7749.4530       0.83636527        1.0328356       0.87985263       0.87632296      -0.12218647E-01   0.99175171E-03
  7751.9350       0.80756031        1.0421874       0.85491453       0.88954163      -0.10767031E-01   0.10172485E-02
  7754.4550       0.78250858        1.0513035       0.83378886       0.90258376      -0.71303696E-02   0.20633266E-02
  7756.9490       0.77180864        1.0594738       0.82697447       0.91463968      -0.42151124E-03   0.25224883E-02
  7759.4300       0.78041156        1.0667847       0.83944270       0.92581582       0.54190097E-02   0.16246762E-02
  7761.9470       0.79889285        1.0733931       0.86184537       0.93634562       0.76986202E-02   0.10833026E-02
  7764.4680       0.81919721        1.0792202       0.88607735       0.94610031       0.10876688E-01   0.53392928E-03
  7766.9650       0.85347207        1.0842347       0.92424244       0.95500512       0.10377877E-01  -0.74478869E-04
  7769.4620       0.87102433        1.0885199       0.94568493       0.96318052       0.10504741E-01   0.11927193E-03
  7771.9870       0.90622687        1.0921358       0.98482132       0.97073025       0.10976861E-01  -0.11046455E-02
  7774.4880       0.92619403        1.0950304        1.0086849       0.97752136       0.49527922E-02  -0.18971668E-02
  7776.9970       0.93104036        1.0972717        1.0174402       0.98367154       0.14720552E-02  -0.68571884E-03
  7780.5620       0.93513529        1.0993623        1.0270893       0.99131627       0.78773597E-03  -0.73481127E-03
  7784.1490       0.93667425        1.1002331        1.0342166       0.99777553      -0.37833150E-02  -0.52171320E-03
  7787.6930       0.90815648        1.0999484        1.0112203        1.0030122      -0.29326009E-02   0.64685855E-03
  7791.2820       0.91575601        1.0985704        1.0244113        1.0072257       0.83072699E-03   0.20979679E-03
  7794.8620       0.91411196        1.0961736        1.0283448        1.0104064      -0.14285677E-02  -0.59740883E-03
  7798.4360       0.90553604        1.0928329        1.0253370        1.0126339      -0.34431358E-02  -0.29815010E-03
  7802.0150       0.88948321        1.0886087        1.0148601        1.0139856      -0.35612353E-02   0.30156473E-04
  7805.6140       0.87997349        1.0835450        1.0109575        1.0145290      -0.32266726E-02   0.17392956E-03
  7809.2040       0.86628666        1.0777502        1.0028637        1.0143273      -0.23108557E-02   0.44319274E-03
  7812.8090       0.86334688        1.0712552        1.0055404        1.0134487      -0.37900834E-04  -0.69925422E-04
  7816.3810       0.86601464        1.0642222        1.0137732        1.0119808      -0.28127105E-02  -0.46774677E-03
  7819.9940       0.84313756        1.0565753       0.99652503        1.0099628      -0.33986614E-02   0.49246479E-04
  7823.6050       0.84146271        1.0484687        1.0004760        1.0074820      -0.24569539E-02  -0.17320834E-03
  7827.2230       0.82537624        1.0399540       0.99002621        1.0046040      -0.46507845E-02   0.52641153E-04
  7830.8140       0.80793521        1.0311861       0.97817982        1.0014307      -0.20774638E-02   0.77227885E-03
  7834.4380       0.81038734        1.0220901       0.98627799       0.99798080       0.92120741E-03  -0.72418103E-04
  7838.0600       0.81461028        1.0128236       0.99614387       0.99435722      -0.26022054E-02  -0.37919785E-03
  7841.6900       0.79151614        1.0034338       0.97870513       0.99062279      -0.18287354E-02   0.73095801E-03
  7845.3200       0.80133366       0.99401439       0.99417804       0.98685879       0.27045497E-02   0.12488389E-02
