# XDI/1.0 Athena/0.9.26
# Element.edge:                  K
# Element.symbol:                Co
# Column.1:                      energy eV
# Column.2:                      norm
# Column.3:                      nbkg
# Column.4:                      flat
# Column.5:                      fbkg
# Column.6:                      nder
# Column.7:                      nsec
# Athena.e0:                     7721.54
# Athena.eshift:                 0
# Athena.rbkg:                   1.0
# Athena.importance:             1
# Athena.standard:               None
# Athena.bkg_kweight:            3
# Athena.edge_step:              1.1931481
# Athena.fixed_step:             no
# Athena.pre_edge_range:         -82.964 -19.904
# Athena.pre_edge_line:          0.117912 + 0.000199265 * E
# Athena.normalization_range:    45 125.256
# Athena.post_edge_polynomial:   15.562773 - 0.00164644 * E + 0 * E^2 + 0 * E^3
# Athena.spline_range_energy:    0.000 125.180
# Athena.clamps:                 0 24
# Athena.spline_range_k:         0.000 5.732
# Athena.kweight:                2
# Athena.window:                 hanning
# Athena.phase_correction:       no
# Athena.k_range:                .4 5.35
# Athena.dk:                     .5
# Athena.r_range:                .4 5.1
# Athena.dr:                     .5
# Athena.window:                 hanning
# Athena.plot_multiplier:        1
# Athena.y_offset:               0.2
# ///
#------------------------
#   e         norm        nbkg        flat        fbkg        nder        nsec
  7600.0670      -0.21275995      -0.12759962E-01  -0.21275996      -0.21275996       0.12076766E-01  -0.50434029E-03
  7610.6410      -0.85060230E-01   0.11493977      -0.85060233E-01  -0.85060233E-01   0.67438718E-02  -0.37429540E-03
  7624.5560      -0.47609278E-01   0.15239072      -0.47609280E-01  -0.47609280E-01   0.29106460E-02  -0.20447865E-03
  7637.2000      -0.77563820E-02   0.19224362      -0.77563822E-02  -0.77563823E-02   0.13131233E-02  -0.12983170E-03
  7649.6990      -0.14593418E-01   0.18540658      -0.14593419E-01  -0.14593419E-01  -0.35371250E-03   0.95500355E-04
  7662.1990      -0.16598841E-01   0.18340116      -0.16598841E-01  -0.16598841E-01   0.37005367E-02   0.22641714E-04
  7674.7330       0.78045818E-01   0.27804582       0.78045821E-01   0.78045821E-01   0.21310018E-03  -0.28360862E-03
  7687.3310      -0.11243207E-01   0.18875679      -0.11243208E-01  -0.11243208E-01  -0.34271151E-02   0.67614909E-05
  7700.0100      -0.85813708E-02   0.19141863      -0.85813711E-02  -0.85813711E-02   0.38401038E-03   0.90910627E-03
  7700.3880      -0.62291836E-02   0.19377082      -0.62291839E-02  -0.62291839E-02   0.84430855E-02   0.73230047E-02
  7700.7190      -0.25952232E-02   0.19740478      -0.25952233E-02  -0.25952233E-02   0.55760207E-02  -0.20104777E-01
  7701.0710      -0.24207615E-02   0.19757924      -0.24207616E-02  -0.24207616E-02  -0.52884771E-02  -0.63176603E-02
  7701.4340      -0.63764843E-02   0.19362352      -0.63764845E-02  -0.63764846E-02   0.10588936E-02   0.15249006E-01
  7701.7980      -0.16509458E-02   0.19834905      -0.16509459E-02  -0.16509459E-02   0.57975505E-02  -0.75277170E-02
  7702.1550      -0.21964504E-02   0.19780355      -0.21964504E-02  -0.21964505E-02  -0.43685904E-02  -0.14464908E-01
  7702.5150      -0.47832251E-02   0.19521677      -0.47832253E-02  -0.47832253E-02  -0.45737885E-02   0.47503634E-02
  7702.8790      -0.55078733E-02   0.19449213      -0.55078735E-02  -0.55078735E-02  -0.92932730E-03   0.25374059E-02
  7703.2420      -0.54588461E-02   0.19454115      -0.54588463E-02  -0.54588463E-02  -0.27290945E-02   0.44414947E-02
  7703.6000      -0.74755504E-02   0.19252445      -0.74755506E-02  -0.74755507E-02   0.22729904E-02   0.16397077E-01
  7703.9610      -0.38245660E-02   0.19617543      -0.38245661E-02  -0.38245662E-02   0.90604035E-02   0.99709802E-03
  7704.3250      -0.90675781E-03   0.19909324      -0.90675784E-03  -0.90675787E-03   0.29958864E-02  -0.15898895E-01
  7704.6870      -0.16495524E-02   0.19835045      -0.16495525E-02  -0.16495525E-02  -0.24821939E-02  -0.93539552E-02
  7705.0200      -0.26318826E-02   0.19736812      -0.26318826E-02  -0.26318827E-02  -0.35051124E-02   0.42217556E-02
  7705.3810      -0.40821004E-02   0.19591790      -0.40821006E-02  -0.40821006E-02   0.44770448E-03   0.28512037E-01
  7705.7490      -0.23055060E-02   0.19769449      -0.23055061E-02  -0.23055061E-02   0.17280162E-01   0.35088293E-01
  7706.1120       0.85496982E-02   0.20854970       0.85496985E-02   0.85496985E-02   0.26097247E-01   0.16465462E-01
  7706.4710       0.16536706E-01   0.21653671       0.16536707E-01   0.16536707E-01   0.29168226E-01   0.70006600E-02
  7706.8310       0.29521652E-01   0.22952165       0.29521653E-01   0.29521653E-01   0.31130721E-01  -0.46013483E-02
  7707.1960       0.39106479E-01   0.23910648       0.39106481E-01   0.39106480E-01   0.25832248E-01  -0.18379971E-01
  7707.5570       0.48275865E-01   0.24827587       0.48275866E-01   0.48275866E-01   0.17786863E-01  -0.31234018E-01
  7707.9150       0.51895233E-01   0.25189524       0.51895235E-01   0.51895235E-01   0.33749891E-02  -0.21088629E-01
  7708.2800       0.50715982E-01   0.25071598       0.50715983E-01   0.50715983E-01   0.25397835E-02  -0.26640359E-02
  7708.6460       0.53751815E-01   0.25375182       0.53751817E-01   0.53751817E-01   0.14275788E-02  -0.14005604E-01
  7708.9820       0.51718142E-01   0.25171814       0.51718144E-01   0.51718144E-01  -0.72921508E-02   0.52060655E-03
  7709.2900       0.49055670E-01   0.24905567       0.49055672E-01   0.49055672E-01   0.17628495E-02   0.21216663E-01
  7709.5960       0.52800532E-01   0.25280053       0.52800533E-01   0.52800533E-01   0.57348803E-02  -0.12649522E-01
  7709.9030       0.52571151E-01   0.25257115       0.52571153E-01   0.52571153E-01  -0.59913074E-02  -0.28670744E-01
  7710.2110       0.49115878E-01   0.24911588       0.49115879E-01   0.49115879E-01  -0.11897627E-01  -0.58035216E-03
  7710.5140       0.45301701E-01   0.24530170       0.45301703E-01   0.45301703E-01  -0.63459026E-02   0.16128458E-01
  7710.8230       0.45232185E-01   0.24523219       0.45232187E-01   0.45232187E-01  -0.20270111E-02   0.24561511E-01
  7711.1080       0.44097657E-01   0.24409766       0.44097658E-01   0.44097658E-01   0.82436352E-02   0.11959616E-01
  7711.4160       0.50120661E-01   0.25012066       0.50120663E-01   0.50120663E-01   0.50650409E-02  -0.23631054E-01
  7711.7250       0.47222787E-01   0.24722279       0.47222788E-01   0.47222788E-01  -0.63367252E-02  -0.60812474E-02
  7712.0290       0.46236248E-01   0.24623625       0.46236250E-01   0.46236250E-01   0.13372362E-02   0.29551754E-03
  7712.3330       0.48035826E-01   0.24803583       0.48035828E-01   0.48035828E-01  -0.61570506E-02  -0.18604732E-02
  7712.6440       0.42449662E-01   0.24244966       0.42449664E-01   0.42449664E-01   0.19304515E-03   0.40124792E-01
  7712.9530       0.48155514E-01   0.24815552       0.48155516E-01   0.48155516E-01   0.18720320E-01   0.43913944E-01
  7713.2350       0.53513371E-01   0.25351337       0.53513373E-01   0.53513373E-01   0.26146186E-01   0.47497333E-01
  7713.5380       0.63451033E-01   0.26345104       0.63451035E-01   0.63451035E-01   0.46506260E-01   0.62502456E-01
  7713.8530       0.82254240E-01   0.28225424       0.82254243E-01   0.82254243E-01   0.64772704E-01   0.43256927E-01
  7714.1610       0.10380443       0.30380443       0.10380443       0.10380443       0.73455325E-01   0.18671270E-02
  7714.4700       0.12757618       0.32757618       0.12757618       0.12757618       0.65924721E-01  -0.42826874E-01
  7714.7770       0.14441406       0.34441406       0.14441406       0.14441406       0.47073971E-01  -0.38140243E-01
  7715.0770       0.15615008       0.35615008       0.15615008       0.15615008       0.42773594E-01   0.38864839E-02
  7715.3860       0.17046317       0.37046318       0.17046318       0.17046318       0.49440839E-01  -0.32311455E-02
  7715.6700       0.18546849       0.38546850       0.18546850       0.18546850       0.40857524E-01  -0.42340288E-01
  7715.9720       0.19440568       0.39440569       0.19440569       0.19440569       0.24629430E-01  -0.36711508E-01
  7716.1370       0.19697044       0.39697044       0.19697044       0.19697044       0.23713250E-01   0.22645697E-01
  7716.2550       0.20111653       0.40111654       0.20111654       0.20111654       0.31038163E-01   0.92303514E-01
  7716.3670       0.20410922       0.40410922       0.20410922       0.20410922       0.44943058E-01   0.17680620
  7716.4990       0.21208264       0.41208265       0.21208265       0.21208265       0.74178875E-01   0.73358265E-01
  7716.6200       0.22287647       0.42287648       0.22287648       0.22287648       0.63502699E-01  -0.67996504E-01
  7716.7330       0.22694227       0.42694228       0.22694228       0.22694228       0.58267693E-01  -0.75581668E-01
  7716.8670       0.23726859       0.43726860       0.23726860       0.23726860       0.44834028E-01  -0.52848455E-01
  7716.9880       0.23837495       0.43837496       0.23837496       0.23837496       0.44791337E-01   0.58094212E-01
  7717.1010       0.24774976       0.44774977       0.24774977       0.24774977       0.58428073E-01  -0.80666034E-01
  7717.2330       0.25268983       0.45268984       0.25268984       0.25268984       0.25028159E-01   0.33011513E-01
  7717.3500       0.25398177       0.45398178       0.25398178       0.25398178       0.66647940E-01   0.23561036
  7717.4620       0.26795220       0.46795221       0.26795221       0.26795221       0.78982932E-01  -0.94191773E-01
  7717.5920       0.27309564       0.47309565       0.27309565       0.27309565       0.43853531E-01   0.30220258E-01
  7717.7100       0.27882788       0.47882789       0.27882789       0.27882789       0.86477556E-01   0.30142489
  7717.8420       0.29471503       0.49471504       0.29471504       0.29471504       0.11920975       0.15761895E-02
  7717.9600       0.30863032       0.50863033       0.30863033       0.30863033       0.86871603E-01  -0.17681946
  7718.0740       0.31486925       0.51486926       0.31486926       0.31486926       0.78187637E-01   0.64735455E-01
  7718.2060       0.32786448       0.52786449       0.32786449       0.32786449       0.10279652       0.64753014E-01
  7718.3280       0.34097956       0.54097957       0.34097957       0.34097957       0.94634902E-01  -0.15523859
  7718.4410       0.35010368       0.55010369       0.35010369       0.35010369       0.66315456E-01  -0.81914058E-01
  7718.5730       0.35722685       0.55722686       0.35722686       0.35722686       0.74565958E-01   0.20450027
  7718.6930       0.36889430       0.56889431       0.36889431       0.36889431       0.11784952       0.25471461
  7718.8050       0.38456794       0.58456795       0.38456795       0.38456795       0.13365975      -0.50638675E-01
  7718.9360       0.40137362       0.60137363       0.40137363       0.40137363       0.10554433      -0.29004472E-01
  7719.0560       0.41105957       0.61105958       0.41105958       0.41105958       0.12637962       0.10223523
  7719.1680       0.43069369       0.63069371       0.43069371       0.43069371       0.12926290      -0.97547533E-02
  7719.2990       0.44247045       0.64247047       0.44247047       0.44247047       0.12400922       0.23499944
  7719.4200       0.46194402       0.66194403       0.46194403       0.46194403       0.18848276       0.15344600
  7719.5350       0.48695238       0.68695240       0.48695240       0.48695240       0.16022248      -0.28260773
  7719.6660       0.50135874       0.70135876       0.50135876       0.50135876       0.11896126      -0.62240811E-01
  7719.7880       0.51704958       0.71704960       0.51704960       0.51704960       0.14447555       0.16923802
  7719.9010       0.53531050       0.73531052       0.53531052       0.53531052       0.15873219       0.20808600
  7720.0340       0.55609770       0.75609772       0.55609772       0.55609772       0.19566471       0.25646765
  7720.1540       0.58481367       0.78481369       0.58481369       0.58481369       0.22361851       0.52550812E-01
  7720.2670       0.60820081       0.80820083       0.60820083       0.60820083       0.20790904      -0.22343435
  7720.3970       0.63533557       0.83533559       0.63533559       0.63533559       0.16932396      -0.19689682
  7720.5160       0.65036248       0.85036250       0.65036250       0.65036250       0.15888174       0.11371923E-01
  7720.6460       0.67489712       0.87489714       0.67489714       0.67489714       0.17215557       0.17773918
  7720.7660       0.69340137       0.89340139       0.69340139       0.69340139       0.20331653       0.28758045
  7720.8790       0.72226987       0.92226990       0.72226990       0.72226990       0.23916181       0.18934850E-03
  7721.0130       0.75247433       0.95247436       0.75247436       0.75247436       0.20336330      -0.24120090
  7721.1330       0.77392415       0.97392418       0.77392418       0.77392418       0.17789678      -0.33449824E-01
  7721.2460       0.79392428       0.99392431       0.79392431       0.79392431       0.19556949       0.19316162
  7721.3790       0.82203425        1.0220343       0.82203427       0.82203427       0.22541454       0.24038180
  7721.5000       0.85117958        1.0511796       0.85111770       0.85111770       0.25662647       0.13401001
  7721.6120       0.88182821        2.2526764       0.88193959        2.0527877       0.25663887      -0.14439861
  7721.7440       0.91379946        2.2354234       0.91411503        2.0357389       0.22139321      -0.47950977E-01
  7721.8620       0.93717652        2.2201348       0.93767462        2.0206329       0.24465113      -0.60018358E-01
  7721.9740       0.97006922        2.2057407       0.97074059        2.0064120       0.20758899      -0.32662441
  7722.1040       0.98741305        2.1891756       0.98828551        1.9900480       0.16560802       0.21569157E-02
  7722.2260        1.0118024        2.1737685        1.0128636        1.9748296       0.20813253       0.16683206
  7722.3580        1.0402787        2.1572489        1.0415441        1.9585142       0.20798336      -0.88469833E-01
  7722.4790        1.0644222        2.1422427        1.0658748        1.9436952       0.18574966      -0.25377347
  7722.5930        1.0839299        2.1282238        1.0855588        1.9298527       0.14834660      -0.35516838
  7722.7240        1.1007672        2.1122565        1.1025987        1.9140880       0.98733406E-01  -0.13680461
  7722.8460        1.1089094        2.0975224        1.1109297        1.8995426       0.11373503       0.32646498
  7722.9580        1.1273811        2.0841111        1.1295747        1.8863046       0.17512621       0.27038506
  7723.0510        1.1448103        2.0730583        1.1471477        1.8753956       0.16916397      -0.21145341
  7723.2130        1.1705180        2.0539850        1.1731060        1.8565729       0.12120559      -0.16992146
  7723.4060        1.1878383        2.0315587        1.1907249        1.8344452       0.10884185       0.84308007E-02
  7723.6030        1.2129663        2.0089982        1.2161576        1.8121895       0.12449360      -0.18812940E-01
  7723.8000        1.2368888        1.9867695        1.2403848        1.7902655       0.10142955      -0.15805969
  7724.0000        1.2532338        1.9645392        1.2570393        1.7683446       0.61743908E-01  -0.20722762
  7724.1980        1.2614628        1.9428630        1.2655746        1.7469747       0.18952960E-01  -0.14397889
  7724.3960        1.2607392        1.9215148        1.2651572        1.7259327       0.47282658E-02  -0.24045762E-01
  7724.5920        1.2633258        1.9007026        1.2680470        1.7054238       0.94789300E-02  -0.27043224E-01
  7724.7890        1.2644644        1.8801033        1.2694904        1.6851292      -0.58997211E-02  -0.10312341
  7725.0080        1.2608715        1.8575760        1.2662362        1.6629407      -0.33420407E-01  -0.35801169E-01
  7725.7230        1.2332497        1.7867190        1.2397205        1.5931897      -0.39338012E-01  -0.66255353E-02
  7726.5070        1.2019038        1.7136554        1.2095874        1.5213389      -0.43352085E-01   0.13025886E-04
  7727.3020        1.1647968        1.6443645        1.1737102        1.4532778      -0.39317445E-01   0.50497185E-02
  7728.0660        1.1406079        1.5821835        1.1507032        1.3922787      -0.35479573E-01   0.72878987E-02
  7728.8300        1.1105840        1.5241824        1.1218611        1.3354595      -0.28181535E-01   0.16527430E-01
  7729.5930        1.0975747        1.4702909        1.1100321        1.2827482      -0.10242188E-01   0.16906675E-01
  7730.3530        1.0949852        1.4204814        1.1086182        1.2341144      -0.24326688E-02   0.49297365E-02
  7731.1470        1.0937944        1.3724213        1.1086556        1.1872826      -0.25813772E-02   0.17876310E-02
  7731.9100        1.0909660        1.3299249        1.1070076        1.1459665       0.35067264E-03  -0.39471580E-02
  7732.6790        1.0943316        1.2906091        1.1115628        1.1078403      -0.86284232E-02  -0.60981190E-02
  7733.4410        1.0777558        1.2549932        1.0961658        1.0734031      -0.89855476E-02   0.58513655E-02
  7734.2140        1.0805388        1.2221208        1.1001445        1.0417265       0.35342286E-03  -0.20474527E-02
  7734.9760        1.0782983        1.1927883        1.0990828        1.0135728      -0.12128387E-01  -0.10800567E-01
  7735.7750        1.0616064        1.1651569        1.0836268       0.98717731      -0.16506262E-01   0.70977192E-02
  7736.5390        1.0524991        1.1415843        1.0757014       0.96478659      -0.10346523E-02   0.74642514E-02
  7737.3090        1.0600192        1.1205016        1.0844126       0.94489502      -0.50561002E-02  -0.12215851E-01
  7738.0780        1.0447177        1.1019854        1.0703007       0.92756842      -0.19834847E-01  -0.83213070E-02
  7738.8440        1.0295727        1.0859239        1.0563407       0.91269182      -0.17829306E-01   0.52374983E-02
  7739.6160        1.0172963        1.0720005        1.0452584       0.89996266      -0.11779574E-01   0.20379885E-02
  7740.3880        1.0113850        1.0602074        1.0405415       0.88936381      -0.14682652E-01  -0.51747679E-02
  7741.1610       0.99461155        1.0503903        1.0249637       0.88074245      -0.19774591E-01  -0.55675331E-02
  7741.9520       0.98045759        1.0422576        1.0120334       0.87383341      -0.23390274E-01  -0.63967575E-03
  7744.4520       0.91763416        1.0275463       0.95307727       0.86298934      -0.21879763E-01   0.13884194E-02
  7746.9690       0.87068681        1.0258102       0.91002352       0.86514691      -0.16424574E-01   0.18528250E-02
  7749.4530       0.83549487        1.0321370       0.87867413       0.87531625      -0.12613786E-01   0.11696952E-02
  7751.9350       0.80804675        1.0416646       0.85506548       0.88868327      -0.10615867E-01   0.93649024E-03
  7754.4550       0.78239430        1.0509521       0.83331127       0.90186905      -0.79294616E-02   0.19976143E-02
  7756.9490       0.76828843        1.0592760       0.82306343       0.91405098      -0.59982946E-03   0.26619345E-02
  7759.4300       0.77941015        1.0667245       0.83802307       0.92533743       0.53136624E-02   0.16019984E-02
  7761.9470       0.79484612        1.0734583       0.85735264       0.93596475       0.74069583E-02   0.11841691E-02
  7764.4680       0.81672640        1.0793972       0.88313272       0.94580353       0.11279506E-01   0.66691414E-03
  7766.9650       0.85144668        1.0845102       0.92171567       0.95477914       0.10753533E-01  -0.40864511E-04
  7769.4620       0.87042955        1.0888822       0.94456121       0.96301385       0.11075429E-01   0.50699611E-05
  7771.9870       0.90706748        1.0925752       0.98510512       0.97061282       0.10778995E-01  -0.11548931E-02
  7774.4880       0.92460478        1.0955365        1.0065113       0.97744297       0.52709365E-02  -0.17129209E-02
  7776.9970       0.93347488        1.0978359        1.0192626       0.98362355       0.21972614E-02  -0.71720642E-03
  7780.5620       0.93795094        1.0999957        1.0292535       0.99129817       0.91462473E-03  -0.85008429E-03
  7784.1490       0.94001627        1.1009229        1.0368676       0.99777421      -0.38825415E-02  -0.63057372E-03
  7787.6930       0.91026454        1.1006835        1.0125982        1.0030171      -0.35819965E-02   0.64066083E-03
  7791.2820       0.91446589        1.0993434        1.0223514        1.0072289       0.68729222E-03   0.33893239E-03
  7794.8620       0.91519174        1.0969793        1.0286152        1.0104028      -0.11521902E-02  -0.59223150E-03
  7798.4360       0.90622312        1.0936688        1.0251753        1.0126210      -0.35495319E-02  -0.29845344E-03
  7802.0150       0.88980194        1.0894751        1.0142906        1.0139638      -0.32870276E-02   0.55887660E-04
  7805.6140       0.88262884        1.0844452        1.0126849        1.0145012      -0.31483703E-02   0.10168635E-03
  7809.2040       0.86716830        1.0786898        1.0027778        1.0142993      -0.25560045E-02   0.43185599E-03
  7812.8090       0.86423839        1.0722430        1.0054245        1.0134291      -0.41166399E-04  -0.26880728E-04
  7816.3810       0.86687285        1.0652689        1.0135846        1.0119806      -0.27489275E-02  -0.49067287E-03
  7819.9940       0.84448734        1.0576955       0.99678813        1.0099963      -0.35666510E-02   0.39718813E-04
  7823.6050       0.84110736        1.0496795       0.99899409        1.0075662      -0.24619988E-02  -0.10703830E-03
  7827.2230       0.82668955        1.0412753       0.99017305        1.0047588      -0.43404309E-02   0.43536125E-04
  7830.8140       0.80981720        1.0326394       0.97885569        1.0016779      -0.21481468E-02   0.73758805E-03
  7834.4380       0.81119067        1.0237021       0.98583522       0.99834661       0.98126692E-03  -0.83191458E-04
  7838.0600       0.81692746        1.0146224       0.99717496       0.99486984      -0.27509521E-02  -0.40330539E-03
  7841.6900       0.79124077        1.0054509       0.97710360       0.99131373      -0.19435038E-02   0.81820482E-03
  7845.3200       0.80281762       0.99628398       0.99429579       0.98776212       0.31892148E-02   0.14139721E-02
