# XDI/1.0 Athena/0.9.26
# Element.edge:                  K
# Element.symbol:                Co
# Column.1:                      energy eV
# Column.2:                      norm
# Column.3:                      nbkg
# Column.4:                      flat
# Column.5:                      fbkg
# Column.6:                      nder
# Column.7:                      nsec
# Athena.e0:                     7721.54
# Athena.eshift:                 0
# Athena.rbkg:                   1.0
# Athena.importance:             1
# Athena.standard:               None
# Athena.bkg_kweight:            3
# Athena.edge_step:              1.1944688
# Athena.fixed_step:             no
# Athena.pre_edge_range:         -82.964 -19.904
# Athena.pre_edge_line:          0.238154 + 0.00018365 * E
# Athena.normalization_range:    45 125.256
# Athena.post_edge_polynomial:   15.628675 - 0.00165485 * E + 0 * E^2 + 0 * E^3
# Athena.spline_range_energy:    0.000 125.180
# Athena.clamps:                 0 24
# Athena.spline_range_k:         0.000 5.732
# Athena.kweight:                2
# Athena.window:                 hanning
# Athena.phase_correction:       no
# Athena.k_range:                .4 5.35
# Athena.dk:                     .5
# Athena.r_range:                .4 5.1
# Athena.dr:                     .5
# Athena.window:                 hanning
# Athena.plot_multiplier:        1
# Athena.y_offset:               0.2
# ///
#------------------------
#   e         norm        nbkg        flat        fbkg        nder        nsec
  7600.0670      -0.21518873      -0.15188722E-01  -0.21518872      -0.21518872       0.12140240E-01  -0.50596075E-03
  7610.6410      -0.86817831E-01   0.11318217      -0.86817828E-01  -0.86817828E-01   0.67902111E-02  -0.37359056E-03
  7624.5560      -0.48903250E-01   0.15109675      -0.48903248E-01  -0.48903248E-01   0.29913809E-02  -0.20411975E-03
  7637.2000      -0.73697464E-02   0.19263025      -0.73697461E-02  -0.73697461E-02   0.13689948E-02  -0.13356212E-03
  7649.6990      -0.14482615E-01   0.18551739      -0.14482614E-01  -0.14482614E-01  -0.36677156E-03   0.90967045E-04
  7662.1990      -0.16538669E-01   0.18346133      -0.16538668E-01  -0.16538668E-01   0.36430799E-02   0.23279662E-04
  7674.7330       0.76718248E-01   0.27671825       0.76718245E-01   0.76718245E-01   0.21601151E-03  -0.27985088E-03
  7687.3310      -0.11109868E-01   0.18889013      -0.11109867E-01  -0.11109867E-01  -0.33901324E-02   0.92980006E-05
  7700.0100      -0.89741279E-02   0.19102587      -0.89741275E-02  -0.89741275E-02   0.45103707E-03   0.10083816E-02
  7700.3880      -0.52206765E-02   0.19477932      -0.52206763E-02  -0.52206763E-02   0.97763065E-02   0.38293094E-02
  7700.7190      -0.20427266E-02   0.19795727      -0.20427265E-02  -0.20427265E-02   0.31660174E-02  -0.23087794E-01
  7701.0710      -0.30582866E-02   0.19694171      -0.30582865E-02  -0.30582865E-02  -0.59926569E-02  -0.16111138E-02
  7701.4340      -0.63274762E-02   0.19367252      -0.63274760E-02  -0.63274760E-02   0.20140711E-02   0.16792027E-01
  7701.7980      -0.15940569E-02   0.19840594      -0.15940569E-02  -0.15940568E-02   0.62151464E-02  -0.85154006E-02
  7702.1550      -0.18463557E-02   0.19815364      -0.18463556E-02  -0.18463556E-02  -0.41255327E-02  -0.17446831E-01
  7702.5150      -0.45520639E-02   0.19544794      -0.45520637E-02  -0.45520637E-02  -0.62942317E-02   0.11674001E-02
  7702.8790      -0.64033794E-02   0.19359662      -0.64033792E-02  -0.64033791E-02  -0.32803351E-02   0.79229315E-02
  7703.2420      -0.69368675E-02   0.19306313      -0.69368672E-02  -0.69368672E-02  -0.53426046E-03   0.89948652E-02
  7703.6000      -0.67885812E-02   0.19321142      -0.67885809E-02  -0.67885809E-02   0.32049627E-02   0.12496988E-01
  7703.9610      -0.46324993E-02   0.19536750      -0.46324991E-02  -0.46324991E-02   0.84510736E-02   0.33490344E-02
  7704.3250      -0.66155286E-03   0.19933845      -0.66155283E-03  -0.66155281E-03   0.56330127E-02  -0.15827947E-01
  7704.6870      -0.54293211E-03   0.19945707      -0.54293209E-03  -0.54293207E-03  -0.30400157E-02  -0.16440185E-01
  7705.0200      -0.27743638E-02   0.19722564      -0.27743637E-02  -0.27743636E-02  -0.57929156E-02   0.40947285E-02
  7705.3810      -0.45632156E-02   0.19543678      -0.45632154E-02  -0.45632154E-02  -0.19827412E-03   0.32091741E-01
  7705.7490      -0.29189056E-02   0.19708109      -0.29189055E-02  -0.29189055E-02   0.17601964E-01   0.34720486E-01
  7706.1120       0.83038201E-02   0.20830382       0.83038197E-02   0.83038198E-02   0.25182401E-01   0.13170708E-01
  7706.4710       0.15262788E-01   0.21526279       0.15262787E-01   0.15262787E-01   0.27111215E-01   0.98374893E-02
  7706.8310       0.27796784E-01   0.22779678       0.27796782E-01   0.27796782E-01   0.32255556E-01   0.15960334E-02
  7707.1960       0.38648066E-01   0.23864806       0.38648065E-01   0.38648065E-01   0.28268339E-01  -0.19588469E-01
  7707.5570       0.48319598E-01   0.24831960       0.48319596E-01   0.48319596E-01   0.18034327E-01  -0.32769641E-01
  7707.9150       0.51614747E-01   0.25161475       0.51614745E-01   0.51614745E-01   0.47069673E-02  -0.21092546E-01
  7708.2800       0.51722735E-01   0.25172273       0.51722733E-01   0.51722733E-01   0.27844167E-02  -0.81811006E-02
  7708.6460       0.53650156E-01   0.25365015       0.53650154E-01   0.53650154E-01  -0.12734173E-02  -0.13891352E-01
  7708.9820       0.50828796E-01   0.25082879       0.50828794E-01   0.50828794E-01  -0.69673122E-02   0.75819960E-02
  7709.2900       0.49163207E-01   0.24916321       0.49163205E-01   0.49163205E-01   0.36093881E-02   0.22997583E-01
  7709.5960       0.53044960E-01   0.25304496       0.53044958E-01   0.53044958E-01   0.71532038E-02  -0.16029524E-01
  7709.9030       0.53548121E-01   0.25354812       0.53548119E-01   0.53548119E-01  -0.62167102E-02  -0.34374498E-01
  7710.2110       0.49221684E-01   0.24922168       0.49221682E-01   0.49221682E-01  -0.13987112E-01  -0.20731353E-02
  7710.5140       0.45001995E-01   0.24500199       0.45001994E-01   0.45001994E-01  -0.74833958E-02   0.18602500E-01
  7710.8230       0.44641845E-01   0.24464184       0.44641844E-01   0.44641844E-01  -0.26023825E-02   0.25739581E-01
  7711.1080       0.43456180E-01   0.24345618       0.43456178E-01   0.43456178E-01   0.78059153E-02   0.13418609E-01
  7711.4160       0.49270753E-01   0.24927075       0.49270751E-01   0.49270751E-01   0.53548528E-02  -0.19731410E-01
  7711.7250       0.46760124E-01   0.24676012       0.46760122E-01   0.46760122E-01  -0.43683645E-02  -0.13883251E-01
  7712.0290       0.46592946E-01   0.24659294       0.46592944E-01   0.46592944E-01  -0.31555802E-02  -0.14643368E-01
  7712.3330       0.44841531E-01   0.24484153       0.44841530E-01   0.44841530E-01  -0.13271532E-01   0.12700945E-01
  7712.6440       0.38430953E-01   0.23843095       0.38430952E-01   0.38430952E-01   0.46555008E-02   0.54295259E-01
  7712.9530       0.47727942E-01   0.24772794       0.47727940E-01   0.47727940E-01   0.20391529E-01   0.34813666E-01
  7713.2350       0.50482347E-01   0.25048235       0.50482345E-01   0.50482345E-01   0.25230377E-01   0.38711201E-01
  7713.5380       0.62487713E-01   0.26248771       0.62487710E-01   0.62487710E-01   0.43037581E-01   0.57754879E-01
  7713.8530       0.77079572E-01   0.27707957       0.77079569E-01   0.77079569E-01   0.60922892E-01   0.51043071E-01
  7714.1610       0.10044267       0.30044267       0.10044267       0.10044267       0.74837414E-01   0.44406156E-02
  7714.4700       0.12325426       0.32325425       0.12325425       0.12325425       0.63662752E-01  -0.44594235E-01
  7714.7770       0.13965893       0.33965892       0.13965892       0.13965892       0.47367365E-01  -0.40066099E-01
  7715.0770       0.15200625       0.35200624       0.15200624       0.15200624       0.39342630E-01  -0.15798042E-02
  7715.3860       0.16361859       0.36361859       0.16361859       0.16361859       0.46405265E-01   0.14583020E-02
  7715.6700       0.17952457       0.37952456       0.17952456       0.17952456       0.40207403E-01  -0.32315078E-01
  7715.9720       0.18718013       0.38718012       0.18718012       0.18718012       0.27468629E-01  -0.24247217E-01
  7716.1370       0.19235242       0.39235241       0.19235241       0.19235241       0.28883953E-01  -0.99697233E-02
  7716.2550       0.19535429       0.39535428       0.19535428       0.19535428       0.24647197E-01   0.67359226E-01
  7716.3670       0.19802127       0.39802127       0.19802127       0.19802127       0.44376575E-01   0.18360618
  7716.4990       0.20618217       0.40618217       0.20618216       0.20618217       0.69447106E-01   0.53353801E-01
  7716.6200       0.21559139       0.41559138       0.21559138       0.21559138       0.57875087E-01  -0.61446154E-01
  7716.7330       0.21972494       0.41972493       0.21972493       0.21972493       0.55068706E-01   0.10029742E-01
  7716.8670       0.22919336       0.42919335       0.22919335       0.22919335       0.60352433E-01  -0.60689221E-01
  7716.9880       0.23511481       0.43511480       0.23511480       0.23511480       0.39592954E-01  -0.98976081E-01
  7717.1010       0.23845811       0.43845810       0.23845810       0.23845810       0.37192030E-01   0.35436913E-01
  7717.2330       0.24422686       0.44422685       0.24422685       0.24422685       0.48274998E-01   0.16005294
  7717.3500       0.25047859       0.45047858       0.25047858       0.25047858       0.77045211E-01   0.72612604E-01
  7717.4620       0.26187021       0.46187020       0.26187020       0.26187020       0.64903284E-01  -0.18939122
  7717.5920       0.26618518       0.46618517       0.26618517       0.26618517       0.31212536E-01   0.10131797
  7717.7100       0.26961092       0.46961091       0.26961091       0.26961091       0.90030141E-01   0.33546519
  7717.8420       0.28869272       0.48869271       0.28869271       0.28869271       0.11507883      -0.79069733E-01
  7717.9600       0.29838063       0.49838062       0.29838062       0.29838062       0.70262708E-01  -0.10789637
  7718.0740       0.30499367       0.50499365       0.30499365       0.30499365       0.90046876E-01   0.16368090
  7718.2060       0.32053216       0.52053215       0.32053215       0.32053215       0.11052821      -0.23832978E-01
  7718.3280       0.33306783       0.53306782       0.33306782       0.33306782       0.83993299E-01  -0.23097542
  7718.4410       0.34027059       0.54027057       0.34027057       0.34027057       0.56248986E-01  -0.25205635E-01
  7718.5730       0.34684883       0.54684882       0.34684882       0.34684882       0.77817919E-01   0.21007058
  7718.6930       0.35988070       0.55988069       0.35988069       0.35988069       0.10918677       0.17080888
  7718.8050       0.37218016       0.57218015       0.37218015       0.37218015       0.11744558       0.30363056E-01
  7718.9360       0.38841998       0.58841996       0.38841996       0.38841996       0.11656499       0.12857592
  7719.0560       0.40143798       0.60143796       0.40143796       0.40143796       0.14971814       0.49168193E-01
  7719.1680       0.42315459       0.62315457       0.42315457       0.42315457       0.12797201      -0.18079962
  7719.2990       0.43253518       0.63253516       0.43253516       0.43253516       0.10578383       0.19803957
  7719.4200       0.44981211       0.64981209       0.44981209       0.44981209       0.17787799       0.18316775
  7719.5350       0.47451438       0.67451436       0.47451436       0.47451436       0.14901142      -0.22683954
  7719.6660       0.48646892       0.68646890       0.48646890       0.48646890       0.12207546       0.10256840
  7719.7880       0.50539947       0.70539945       0.50539945       0.50539945       0.17496122       0.20120076
  7719.9010       0.52758481       0.72758479       0.52758479       0.52758479       0.16935764      -0.14482769E-01
  7720.0340       0.54706145       0.74706143       0.54706143       0.54706143       0.17139846       0.21218659
  7720.1540       0.57094862       0.77094860       0.57094860       0.57094860       0.22304084       0.13988585
  7720.2670       0.59902997       0.79902995       0.59902995       0.59902995       0.20399186      -0.29820526
  7720.3970       0.62051864       0.82051862       0.62051862       0.62051862       0.15057697      -0.17637444
  7720.5160       0.63652363       0.83652361       0.63652361       0.63652361       0.16007463       0.93617957E-01
  7720.6460       0.66037722       0.86037720       0.66037720       0.66037720       0.17388784       0.28029807
  7720.7660       0.67999559       0.87999557       0.67999557       0.67999557       0.23014915       0.28404577
  7720.8790       0.71400197       0.91400195       0.71400195       0.71400195       0.24007050      -0.15983505
  7721.0130       0.73929301       0.93929298       0.73929298       0.73929298       0.19066989      -0.17761096
  7721.1330       0.76243212       0.96243210       0.76243210       0.76243210       0.19495732      -0.88683850E-03
  7721.2460       0.78471806       0.98471803       0.78471803       0.78471803       0.19046326       0.68882315E-01
  7721.3790       0.80928609        1.0092861       0.80928605       0.80928605       0.21190237       0.30047480
  7721.5000       0.83854127        1.0385412       0.83847970       0.83847970       0.26678385       0.21259214
  7721.6120       0.87144672        2.2662024       0.87155755        2.0663133       0.26143634      -0.11035205
  7721.7440       0.90233173        2.2487282       0.90264573        2.0490423       0.23985795      -0.21306665E-01
  7721.8620       0.93141121        2.2332437       0.93190683        2.0337394       0.25610967      -0.13551171
  7721.9740       0.96123696        2.2186651       0.96190496        2.0193332       0.20869026      -0.37660885
  7722.1040       0.98191425        2.2018878       0.98278235        2.0027560       0.16497033      -0.30294355E-01
  7722.2260        1.0028095        2.1862833        1.0038654        1.9873392       0.20105608       0.22028811
  7722.3580        1.0329825        2.1695522        1.0342415        1.9708113       0.22092351      -0.32012718E-01
  7722.4790        1.0587031        2.1543538        1.0601484        1.9557992       0.19295686      -0.29130395
  7722.5930        1.0783274        2.1401555        1.0799481        1.9417763       0.15246708      -0.33093511
  7722.7240        1.0960576        2.1239838        1.0978799        1.9258063       0.11187776      -0.11723154
  7722.8460        1.1066324        2.1090612        1.1086426        1.9110714       0.12280750       0.27146480
  7722.9580        1.1247945        2.0954783        1.1269771        1.8976608       0.17540053       0.23537809
  7723.0510        1.1425895        2.0842841        1.1449152        1.8866098       0.17106001      -0.18653665
  7723.2130        1.1684148        2.0649669        1.1709899        1.8675419       0.12783368      -0.14189052
  7723.4060        1.1879705        2.0422539        1.1908426        1.8451260       0.12068888       0.56617404E-02
  7723.6030        1.2154835        2.0194051        1.2186588        1.8225805       0.13004176      -0.41662966E-01
  7723.8000        1.2392070        1.9968924        1.2426855        1.8003710       0.10427367      -0.15978907
  7724.0000        1.2568801        1.9743782        1.2606665        1.7781646       0.66605496E-01  -0.20442207
  7724.1980        1.2657159        1.9524254        1.2698071        1.7565166       0.22913687E-01  -0.14350891
  7724.3960        1.2659540        1.9308047        1.2703498        1.7352006       0.97759663E-02  -0.22464892E-01
  7724.5920        1.2695677        1.9097271        1.2742652        1.7144247       0.14062520E-01  -0.39723905E-01
  7724.7890        1.2714805        1.8888652        1.2764813        1.6938660      -0.58355286E-02  -0.11167102
  7725.0080        1.2671401        1.8660508        1.2724780        1.6713887      -0.32392626E-01  -0.39017149E-01
  7725.7230        1.2412258        1.7942918        1.2476642        1.6007302      -0.42277545E-01  -0.98891401E-02
  7726.5070        1.2037661        1.7202998        1.2114111        1.5279449      -0.47216447E-01   0.18326300E-02
  7727.3020        1.1666710        1.6501303        1.1755398        1.4589991      -0.39383822E-01   0.54332346E-02
  7728.0660        1.1423667        1.5871627        1.1524113        1.3972074      -0.38746034E-01   0.59589095E-02
  7728.8300        1.1074671        1.5284297        1.1186877        1.3396504      -0.30278609E-01   0.20040765E-01
  7729.5930        1.0961312        1.4738601        1.1085262        1.2862551      -0.81437856E-02   0.18460417E-01
  7730.3530        1.0950641        1.4234259        1.1086289        1.2369907      -0.21633941E-02   0.42268874E-02
  7731.1470        1.0927693        1.3747651        1.1075562        1.1895521      -0.15752026E-02   0.29340603E-02
  7731.9100        1.0926115        1.3317398        1.1085728        1.1477011       0.24049378E-02  -0.35370913E-02
  7732.6790        1.0964537        1.2919369        1.1135986        1.1090818      -0.69940266E-02  -0.73714673E-02
  7733.4410        1.0819037        1.2558821        1.1002214        1.0741999      -0.88807787E-02   0.30782361E-02
  7734.2140        1.0828217        1.2226070        1.1023292        1.0421146      -0.22689342E-02  -0.28605177E-02
  7734.9760        1.0784209        1.1929178        1.0991012        1.0135983      -0.13271673E-01  -0.86843552E-02
  7735.7750        1.0621046        1.1649532        1.0840148       0.98686345      -0.15825213E-01   0.84006590E-02
  7736.5390        1.0536860        1.1410993        1.0767722       0.96418550      -0.14144335E-03   0.71092125E-02
  7737.3090        1.0618876        1.1197681        1.0861589       0.94403941      -0.49196807E-02  -0.13733468E-01
  7738.0780        1.0461147        1.1010369        1.0715696       0.92649183      -0.21277251E-01  -0.80667857E-02
  7738.8440        1.0292271        1.0847923        1.0558610       0.91142624      -0.17302197E-01   0.74039356E-02
  7739.6160        1.0195039        1.0707140        1.0473261       0.89853620      -0.98899980E-02   0.22076943E-02
  7740.3880        1.0139569        1.0587938        1.0429673       0.88780428      -0.13893517E-01  -0.83308482E-02
  7741.1610       0.99803840        1.0488754        1.0282386       0.87907568      -0.22761158E-01  -0.70213014E-02
  7741.9520       0.97835845        1.0406641        1.0097762       0.87208187      -0.24874832E-01   0.42249868E-03
  7744.4520       0.91617533        1.0258475       0.95144098       0.86111322      -0.21370715E-01   0.17471119E-02
  7746.9690       0.87114157        1.0241757       0.91028133       0.86331551      -0.16109572E-01   0.16737499E-02
  7749.4530       0.83561136        1.0306699       0.87857444       0.87363306      -0.13000292E-01   0.10559220E-02
  7751.9350       0.80658212        1.0404054       0.85336544       0.88718880      -0.10865863E-01   0.10145871E-02
  7754.4550       0.78126031        1.0498976       0.83192237       0.90055966      -0.79253272E-02   0.19342348E-02
  7756.9490       0.76684453        1.0584112       0.82134529       0.91291195      -0.11676094E-02   0.26385636E-02
  7759.4300       0.77545146        1.0660361       0.83377092       0.92435561       0.52015265E-02   0.18099601E-02
  7761.9470       0.79284176        1.0729367       0.85503533       0.93513032       0.78785712E-02   0.12097898E-02
  7764.4680       0.81514370        1.0790310       0.88121754       0.94510489       0.11296447E-01   0.63729620E-03
  7766.9650       0.84952733        1.0842865       0.91944450       0.95420371       0.11076524E-01   0.71633137E-04
  7769.4620       0.87045986        1.0887903       0.94422035       0.96255079       0.11654183E-01  -0.39975846E-04
  7771.9870       0.90805464        1.0926058       0.98570156       0.97025274       0.10875765E-01  -0.13311602E-02
  7774.4880       0.92512145        1.0956783        1.0066179       0.97717474       0.49637722E-02  -0.16914243E-02
  7776.9970       0.93292314        1.0980794        1.0182813       0.98343768       0.24017289E-02  -0.62388241E-03
  7780.5620       0.93970955        1.1003679        1.0305549       0.99121326       0.11743104E-02  -0.89771242E-03
  7784.1490       0.94132181        1.1014064        1.0376882       0.99777284      -0.40187103E-02  -0.64771972E-03
  7787.6930       0.91105213        1.1012603        1.0128734        1.0030816      -0.34445789E-02   0.63030677E-03
  7791.2820       0.91675162        1.0999990        1.0240970        1.0073444       0.47726786E-03   0.28468680E-03
  7794.8620       0.91447366        1.0976989        1.0273293        1.0105545      -0.14036593E-02  -0.48425737E-03
  7798.4360       0.90670985        1.0944387        1.0250665        1.0127954      -0.29871094E-02  -0.26344937E-03
  7802.0150       0.89310687        1.0902831        1.0169722        1.0141485      -0.32881126E-02  -0.89405497E-04
  7805.6140       0.88310777        1.0852801        1.0125126        1.0146850      -0.36288620E-02   0.95535134E-04
  7809.2040       0.86701898        1.0795413        1.0019495        1.0144719      -0.26013106E-02   0.51415798E-03
  7812.8090       0.86439134        1.0731021        1.0048706        1.0135814       0.70504657E-04  -0.13603493E-04
  7816.3810       0.86752499        1.0661277        1.0135022        1.0121050      -0.26989428E-02  -0.49684013E-03
  7819.9940       0.84499944        1.0585473       0.99653768        1.0100856      -0.34992917E-02   0.20726679E-04
  7823.6050       0.84224611        1.0505185       0.99934232        1.0076147      -0.25492133E-02  -0.12391475E-03
  7827.2230       0.82657118        1.0420969       0.98923614        1.0047619      -0.43950714E-02   0.95423776E-04
  7830.8140       0.81056204        1.0334404       0.97875419        1.0016326      -0.18613033E-02   0.72468762E-03
  7834.4380       0.81314187        1.0244800       0.98691201       0.99825020       0.83354975E-03  -0.14052071E-03
  7838.0600       0.81660194        1.0153763       0.99594697       0.99472132      -0.28795164E-02  -0.35662537E-03
  7841.6900       0.79225962        1.0061808       0.97719187       0.99111308      -0.17526975E-02   0.83746478E-03
  7845.3200       0.80387736       0.99699111       0.99439682       0.98751061       0.32004779E-02   0.13645111E-02
