# XDI/1.0 Athena/0.9.26
# Element.edge:                  K
# Element.symbol:                Co
# Column.1:                      energy eV
# Column.2:                      norm
# Column.3:                      nbkg
# Column.4:                      flat
# Column.5:                      fbkg
# Column.6:                      nder
# Column.7:                      nsec
# Athena.e0:                     7721.54
# Athena.eshift:                 0
# Athena.rbkg:                   1.0
# Athena.importance:             1
# Athena.standard:               None
# Athena.bkg_kweight:            3
# Athena.edge_step:              1.1923720
# Athena.fixed_step:             no
# Athena.pre_edge_range:         -82.964 -19.904
# Athena.pre_edge_line:          -0.017779 + 0.00021696 * E
# Athena.normalization_range:    45 125.256
# Athena.post_edge_polynomial:   15.578363 - 0.00164844 * E + 0 * E^2 + 0 * E^3
# Athena.spline_range_energy:    0.000 125.180
# Athena.clamps:                 0 24
# Athena.spline_range_k:         0.000 5.732
# Athena.kweight:                2
# Athena.window:                 hanning
# Athena.phase_correction:       no
# Athena.k_range:                .4 5.35
# Athena.dk:                     .5
# Athena.r_range:                .4 5.1
# Athena.dr:                     .5
# Athena.window:                 hanning
# Athena.plot_multiplier:        1
# Athena.y_offset:               0.2
# ///
#------------------------
#   e         norm        nbkg        flat        fbkg        nder        nsec
  7600.0670      -0.21621561      -0.16215621E-01  -0.21621562      -0.21621562       0.12708595E-01  -0.54523984E-03
  7610.6410      -0.81834930E-01   0.11816507      -0.81834933E-01  -0.81834933E-01   0.69432289E-02  -0.40544341E-03
  7624.5560      -0.46182880E-01   0.15381712      -0.46182881E-01  -0.46182881E-01   0.27796912E-02  -0.21538536E-03
  7637.2000      -0.80091121E-02   0.19199089      -0.80091124E-02  -0.80091124E-02   0.12228091E-02  -0.12505205E-03
  7649.6990      -0.15437790E-01   0.18456221      -0.15437790E-01  -0.15437790E-01  -0.36449250E-03   0.10542538E-03
  7662.1990      -0.17121060E-01   0.18287894      -0.17121061E-01  -0.17121061E-01   0.38583382E-02   0.23609841E-04
  7674.7330       0.81151848E-01   0.28115185       0.81151852E-01   0.81151852E-01   0.22655627E-03  -0.29565181E-03
  7687.3310      -0.11427248E-01   0.18857275      -0.11427248E-01  -0.11427248E-01  -0.35719830E-02   0.80821752E-05
  7700.0100      -0.91371659E-02   0.19086283      -0.91371663E-02  -0.91371663E-02   0.43084941E-03   0.10017331E-02
  7700.3880      -0.58016472E-02   0.19419835      -0.58016474E-02  -0.58016474E-02   0.95076459E-02   0.55707183E-02
  7700.7190      -0.23962450E-02   0.19760375      -0.23962451E-02  -0.23962451E-02   0.43804887E-02  -0.21772837E-01
  7701.0710      -0.28097735E-02   0.19719023      -0.28097736E-02  -0.28097736E-02  -0.53632015E-02  -0.60709584E-02
  7701.4340      -0.62309341E-02   0.19376907      -0.62309343E-02  -0.62309343E-02   0.39753387E-04   0.14265805E-01
  7701.7980      -0.27808727E-02   0.19721913      -0.27808728E-02  -0.27808728E-02   0.50080388E-02  -0.43412141E-02
  7702.1550      -0.26201381E-02   0.19737986      -0.26201382E-02  -0.26201382E-02  -0.30902620E-02  -0.12582560E-01
  7702.5150      -0.49965906E-02   0.19500341      -0.49965908E-02  -0.49965908E-02  -0.40136564E-02   0.33519741E-02
  7702.8790      -0.55260254E-02   0.19447397      -0.55260256E-02  -0.55260256E-02  -0.66343269E-03   0.16501315E-03
  7703.2420      -0.54789061E-02   0.19452109      -0.54789063E-02  -0.54789063E-02  -0.38936919E-02   0.32147202E-02
  7703.6000      -0.83333772E-02   0.19166662      -0.83333775E-02  -0.83333775E-02   0.16543805E-02   0.18131776E-01
  7703.9610      -0.42894065E-02   0.19571059      -0.42894067E-02  -0.42894067E-02   0.91430550E-02   0.36069386E-02
  7704.3250      -0.17046623E-02   0.19829534      -0.17046624E-02  -0.17046624E-02   0.42694111E-02  -0.15433229E-01
  7704.6870      -0.11898141E-02   0.19881019      -0.11898141E-02  -0.11898141E-02  -0.20614696E-02  -0.11237776E-01
  7705.0200      -0.31373837E-02   0.19686262      -0.31373838E-02  -0.31373838E-02  -0.35408435E-02   0.64762928E-02
  7705.3810      -0.36471595E-02   0.19635284      -0.36471596E-02  -0.36471596E-02   0.24330776E-02   0.26859858E-01
  7705.7490      -0.13636701E-02   0.19863633      -0.13636702E-02  -0.13636702E-02   0.16039993E-01   0.30140966E-01
  7706.1120       0.80780756E-02   0.20807808       0.80780759E-02   0.80780759E-02   0.24466124E-01   0.19188805E-01
  7706.4710       0.16300871E-01   0.21630087       0.16300872E-01   0.16300872E-01   0.29894311E-01   0.10984362E-01
  7706.8310       0.29572085E-01   0.22957209       0.29572086E-01   0.29572086E-01   0.32363880E-01  -0.39620695E-02
  7707.1960       0.39764684E-01   0.23976469       0.39764685E-01   0.39764685E-01   0.27021811E-01  -0.20292537E-01
  7707.5570       0.49189920E-01   0.24918992       0.49189921E-01   0.49189921E-01   0.17631497E-01  -0.32566417E-01
  7707.9150       0.52441731E-01   0.25244173       0.52441733E-01   0.52441733E-01   0.36065565E-02  -0.22924083E-01
  7708.2800       0.51797460E-01   0.25179746       0.51797462E-01   0.51797462E-01   0.10573855E-02  -0.80944240E-02
  7708.6460       0.53214679E-01   0.25321468       0.53214681E-01   0.53214681E-01  -0.23104674E-02  -0.12630991E-01
  7708.9820       0.50175512E-01   0.25017551       0.50175514E-01   0.50175514E-01  -0.78095700E-02   0.74650160E-02
  7709.2900       0.48185316E-01   0.24818532       0.48185318E-01   0.48185318E-01   0.24970029E-02   0.23827913E-01
  7709.5960       0.51708672E-01   0.25170867       0.51708674E-01   0.51708674E-01   0.68207684E-02  -0.11945330E-01
  7709.9030       0.52366447E-01   0.25236645       0.52366449E-01   0.52366449E-01  -0.48254843E-02  -0.32552228E-01
  7710.2110       0.48740999E-01   0.24874100       0.48741001E-01   0.48741001E-01  -0.13198852E-01  -0.41240421E-02
  7710.5140       0.44301949E-01   0.24430195       0.44301951E-01   0.44301951E-01  -0.73452740E-02   0.23572276E-01
  7710.8230       0.44245691E-01   0.24424569       0.44245693E-01   0.44245693E-01   0.12273812E-02   0.30734754E-01
  7711.1080       0.45031013E-01   0.24503102       0.45031015E-01   0.45031015E-01   0.10911170E-01   0.70092733E-02
  7711.4160       0.50716015E-01   0.25071602       0.50716017E-01   0.50716017E-01   0.53838802E-02  -0.24495120E-01
  7711.7250       0.48352868E-01   0.24835287       0.48352869E-01   0.48352869E-01  -0.42023192E-02  -0.52435452E-02
  7712.0290       0.48139993E-01   0.24813999       0.48139995E-01   0.48139995E-01   0.21695870E-02   0.31800649E-02
  7712.3330       0.49671976E-01   0.24967198       0.49671978E-01   0.49671978E-01  -0.22688397E-02   0.76666047E-02
  7712.6440       0.46744657E-01   0.24674466       0.46744658E-01   0.46744658E-01   0.68845489E-02   0.31598573E-01
  7712.9530       0.53940397E-01   0.25394040       0.53940399E-01   0.53940399E-01   0.17322276E-01   0.27273766E-01
  7713.2350       0.56982121E-01   0.25698212       0.56982124E-01   0.56982124E-01   0.23003344E-01   0.51094963E-01
  7713.5380       0.67397353E-01   0.26739736       0.67397356E-01   0.67397356E-01   0.47212829E-01   0.67191351E-01
  7713.8530       0.86159650E-01   0.28615965       0.86159653E-01   0.86159653E-01   0.64527599E-01   0.48915336E-01
  7714.1610       0.10759805       0.30759805       0.10759805       0.10759805       0.77687083E-01   0.16819417E-01
  7714.4700       0.13409258       0.33409258       0.13409258       0.13409258       0.74905180E-01  -0.39270308E-01
  7714.7770       0.15373964       0.35373964       0.15373964       0.15373964       0.53496573E-01  -0.60891242E-01
  7715.0770       0.16656500       0.36656501       0.16656501       0.16656501       0.37944196E-01  -0.10305233E-01
  7715.3860       0.17684765       0.37684766       0.17684766       0.17684766       0.47220686E-01   0.18626983E-01
  7715.6700       0.19456687       0.39456687       0.19456687       0.19456687       0.48989997E-01  -0.43735206E-01
  7715.9720       0.20555579       0.40555580       0.20555580       0.20555580       0.21591855E-01  -0.66461414E-01
  7716.1370       0.20465026       0.40465027       0.20465027       0.20465027       0.17952517E-01   0.88299530E-01
  7716.2550       0.21063635       0.41063636       0.21063636       0.21063636       0.46580622E-01   0.14770668
  7716.3670       0.21536381       0.41536381       0.21536381       0.21536381       0.51925054E-01   0.10371465
  7716.4990       0.22330607       0.42330608       0.22330608       0.22330608       0.71886996E-01   0.96539329E-01
  7716.6200       0.23355122       0.43355122       0.23355122       0.23355122       0.76349504E-01  -0.73786478E-01
  7716.7330       0.24117185       0.44117186       0.24117186       0.24117186       0.54620960E-01  -0.20136446
  7716.8670       0.24704259       0.44704260       0.24704260       0.24704260       0.26612484E-01  -0.81223376E-01
  7716.9880       0.24795804       0.44795804       0.24795804       0.24795804       0.33908999E-01   0.10426472
  7717.1010       0.25497730       0.45497731       0.25497731       0.25497731       0.51010428E-01   0.57139757E-01
  7717.2330       0.26045559       0.46045560       0.26045560       0.26045560       0.47908240E-01   0.18044494
  7717.3500       0.26690645       0.46690646       0.26690646       0.26690646       0.95941217E-01   0.73481425E-01
  7717.4620       0.28242613       0.48242614       0.28242614       0.28242614       0.64735486E-01  -0.18934966
  7717.5920       0.28257244       0.48257245       0.28257245       0.28257245       0.50118599E-01   0.76094782E-01
  7717.7100       0.29485554       0.49485555       0.29485555       0.29485555       0.83606992E-01   0.16646745
  7717.8420       0.30347419       0.50347420       0.30347420       0.30347420       0.91735462E-01   0.11154362
  7717.9600       0.31778941       0.51778942       0.31778942       0.31778942       0.11149290       0.95679322E-01
  7718.0740       0.32934054       0.52934055       0.32934055       0.32934055       0.11393306      -0.85212747E-01
  7718.2060       0.34581694       0.54581695       0.34581695       0.34581695       0.90530562E-01  -0.20178523
  7718.3280       0.35233530       0.55233531       0.35233531       0.35233531       0.62679617E-01   0.71514479E-01
  7718.4410       0.36054665       0.56054666       0.36054666       0.36054666       0.10733646       0.19722368
  7718.5730       0.37863274       0.57863275       0.37863275       0.37863275       0.11099942      -0.36114535E-01
  7718.6930       0.38851850       0.58851852       0.38851852       0.38851852       0.98235602E-01  -0.31956064E-01
  7718.8050       0.40142339       0.60142341       0.40142341       0.40142341       0.10358561       0.12500179
  7718.9360       0.41368981       0.61368982       0.41368982       0.41368982       0.12861104       0.20259502
  7719.0560       0.43370476       0.63370478       0.43370478       0.43370478       0.15443696      -0.29245501E-01
  7719.1680       0.44951918       0.64951920       0.44951920       0.44951920       0.12182608      -0.10546203
  7719.2990       0.46330850       0.66330852       0.46330852       0.46330852       0.12880969       0.12947055
  7719.4200       0.48197922       0.68197924       0.48197924       0.48197924       0.15445266       0.84039880E-01
  7719.5350       0.49975933       0.69975935       0.49975935       0.49975935       0.14864310      -0.12714500E-01
  7719.6660       0.51854543       0.71854545       0.51854545       0.51854545       0.15132489      -0.43821528E-01
  7719.7880       0.53804453       0.73804455       0.53804455       0.53804455       0.13755625       0.10086557
  7719.9010       0.55087115       0.75087117       0.55087117       0.55087117       0.17502830       0.30863016
  7720.0340       0.58110149       0.78110151       0.58110151       0.58110151       0.21347927       0.15081499
  7720.1540       0.60488140       0.80488143       0.60488143       0.60488143       0.21318449      -0.10303820
  7720.2670       0.63077348       0.83077350       0.63077350       0.63077350       0.18947137      -0.19053616
  7720.3970       0.65092295       0.85092297       0.65092297       0.65092297       0.16688420      -0.14968909
  7720.5160       0.67232764       0.87232767       0.67232767       0.67232767       0.15219879       0.29770970E-01
  7720.6460       0.68882044       0.88882047       0.68882047       0.68882047       0.17429718       0.21865562
  7720.7660       0.71590194       0.91590196       0.71590196       0.71590196       0.20686269       0.18701545
  7720.8790       0.73701945       0.93701948       0.73701948       0.73701948       0.21787178       0.83849608E-01
  7721.0130       0.76971627       0.96971629       0.76971629       0.76971629       0.22757354      -0.19897262
  7721.1330       0.79482313       0.99482316       0.79482316       0.79482316       0.16733273      -0.13432495
  7721.2460       0.80870479        1.0087048       0.80870482       0.80870482       0.19627583       0.33076702
  7721.3790       0.84310699        1.0431070       0.84310702       0.84310702       0.24870142       0.20855170
  7721.5000       0.87187495        1.0718750       0.87181237       0.87181237       0.24924796      -0.14956459
  7721.6120       0.90118176        2.2364545       0.90129440        2.0365671       0.21385287      -0.17100141
  7721.7440       0.92405505        2.2194178       0.92437419        2.0197369       0.20752362       0.22340806
  7721.8620       0.95306266        2.2043210       0.95356641        2.0048247       0.26970488      -0.57425932E-01
  7721.9740       0.98608717        2.1901075       0.98676614        1.9907865       0.19431565      -0.56653307
  7722.1040        1.0000871        2.1737505        1.0009694        1.9746328       0.13260388       0.46666599E-01
  7722.2260        1.0195034        2.1585369        1.0205766        1.9596101       0.20607564       0.27153532
  7722.3580        1.0524303        2.1422251        1.0537100        1.9435047       0.20157385      -0.21874887
  7722.4790        1.0705015        2.1274076        1.0719706        1.9288766       0.15073217      -0.23592691
  7722.5930        1.0878523        2.1135652        1.0894997        1.9152125       0.14613103      -0.17522592
  7722.7240        1.1063036        2.0977990        1.1081559        1.8996513       0.10780182      -0.14838738
  7722.8460        1.1151262        2.0832506        1.1171694        1.8852937       0.10858902       0.17858549
  7722.9580        1.1317135        2.0700083        1.1339319        1.8722267       0.14959083       0.18621262
  7723.0510        1.1457923        2.0590950        1.1481562        1.8614588       0.14676261      -0.12955382
  7723.2130        1.1691379        2.0402624        1.1717553        1.8428797       0.11655460      -0.11677376
  7723.4060        1.1871692        2.0181194        1.1900885        1.8210387       0.10530792       0.64576543E-03
  7723.6030        1.2102080        1.9958443        1.2134355        1.7990717       0.11680645      -0.47057933E-01
  7723.8000        1.2331909        1.9738970        1.2367266        1.7774326       0.86767094E-01  -0.16197708
  7724.0000        1.2446546        1.9519483        1.2485031        1.7557968       0.52501551E-01  -0.17400485
  7724.1980        1.2540865        1.9305472        1.2582449        1.7347054       0.17513164E-01  -0.13489942
  7724.3960        1.2515898        1.9094700        1.2560578        1.7139380      -0.91861864E-03  -0.15138783E-01
  7724.5920        1.2537246        1.8889224        1.2584993        1.6936971       0.11548483E-01  -0.25887986E-01
  7724.7890        1.2561283        1.8685852        1.2612112        1.6736681      -0.11092597E-01  -0.10093916
  7725.0080        1.2491101        1.8463449        1.2545356        1.6517704      -0.30442207E-01  -0.27571203E-01
  7725.7230        1.2276953        1.7763932        1.2342394        1.5829372      -0.36844101E-01  -0.82932637E-02
  7726.5070        1.1938808        1.7042674        1.2016514        1.5120379      -0.42873810E-01   0.13119461E-02
  7727.3020        1.1599976        1.6358705        1.1690119        1.4448848      -0.34772538E-01   0.64204032E-02
  7728.0660        1.1396704        1.5744963        1.1498800        1.3847058      -0.32864401E-01   0.46044939E-02
  7728.8300        1.1097808        1.5172523        1.1211856        1.3286571      -0.27736871E-01   0.14000784E-01
  7729.5930        1.0973162        1.4640687        1.1099147        1.2766671      -0.11485203E-01   0.14844991E-01
  7730.3530        1.0922888        1.4149182        1.1060763        1.2287056      -0.51279499E-02   0.55418873E-02
  7731.1470        1.0893474        1.3674989        1.1043770        1.1825285      -0.28731102E-02   0.32501218E-02
  7731.9100        1.0878154        1.3255740        1.1040387        1.1417973      -0.67510319E-04  -0.37237328E-02
  7732.6790        1.0892439        1.2867920        1.1066703        1.1042183      -0.85778690E-02  -0.56886153E-02
  7733.4410        1.0746826        1.2516646        1.0933011        1.0702831      -0.87767804E-02   0.60658137E-02
  7734.2140        1.0757716        1.2192484        1.0955994        1.0390762       0.73315501E-03  -0.45794100E-03
  7734.9760        1.0758080        1.1903284        1.0968279        1.0113482      -0.94797198E-02  -0.10267526E-01
  7735.7750        1.0609737        1.1630913        1.0832436       0.98536117      -0.15294453E-01   0.51393136E-02
  7736.5390        1.0519028        1.1398611        1.0753679       0.96332614      -0.14469727E-02   0.65069015E-02
  7737.3090        1.0587541        1.1190905        1.0834238       0.94376019      -0.53128659E-02  -0.12158301E-01
  7738.0780        1.0437263        1.1008547        1.0695991       0.92672749      -0.20158598E-01  -0.81592676E-02
  7738.8440        1.0278106        1.0850430        1.0548818       0.91211408      -0.17837342E-01   0.45723541E-02
  7739.6160        1.0162925        1.0713431        1.0445714       0.89962196      -0.13126318E-01   0.17204428E-02
  7740.3880        1.0075436        1.0597468        1.0370303       0.88923340      -0.15180978E-01  -0.41220156E-02
  7741.1610       0.99283786        1.0501015        1.0235338       0.88079743      -0.19494832E-01  -0.54834643E-02
  7741.9520       0.97705368        1.0421203        1.0089871       0.87405369      -0.23757116E-01  -0.58896551E-03
  7744.4520       0.91465319        1.0277447       0.95049776       0.86358926      -0.21433117E-01   0.15212462E-02
  7746.9690       0.86952373        1.0261703       0.90930601       0.86595260      -0.16125024E-01   0.18025132E-02
  7749.4530       0.83401194        1.0325373       0.87768031       0.87620567      -0.12418749E-01   0.11640002E-02
  7751.9350       0.80785222        1.0420404       0.85540354       0.88959164      -0.10344599E-01   0.10271373E-02
  7754.4550       0.78226826        1.0512785       0.83376198       0.90277219      -0.72810080E-02   0.19837784E-02
  7756.9490       0.77134525        1.0595363       0.82674070       0.91493177      -0.39793384E-03   0.25278669E-02
  7759.4300       0.78028854        1.0669038       0.83956538       0.92618059       0.52951298E-02   0.15942314E-02
  7761.9470       0.79781030        1.0735411       0.86102485       0.93675562       0.75700346E-02   0.12085111E-02
  7764.4680       0.81842637        1.0793709       0.88558489       0.94652940       0.11383609E-01   0.58078073E-03
  7766.9650       0.85493325        1.0843648       0.92599819       0.95542974       0.10484392E-01  -0.20710578E-03
  7769.4620       0.87078543        1.0886086       0.94575679       0.96357992       0.10349322E-01   0.15274571E-04
  7771.9870       0.90690755        1.0921641       0.98582914       0.97108561       0.10561101E-01  -0.10940102E-02
  7774.4880       0.92386552        1.0949830        1.0066998       0.97781721       0.48508270E-02  -0.17106213E-02
  7776.9970       0.93121019        1.0971349        1.0179697       0.98389435       0.19908887E-02  -0.66735141E-03
  7780.5620       0.93595818        1.0990806        1.0282949       0.99141725       0.79733454E-03  -0.84742592E-03
  7784.1490       0.93691273        1.0997908        1.0348611       0.99773916      -0.40699014E-02  -0.53139710E-03
  7787.6930       0.90693572        1.0993401        1.0104285        1.0028328      -0.29920582E-02   0.70644227E-03
  7791.2820       0.91557038        1.0977938        1.0246779        1.0069013       0.96915130E-03   0.17509601E-03
  7794.8620       0.91388356        1.0952364        1.0285918        1.0099447      -0.17367948E-02  -0.63837996E-03
  7798.4360       0.90314535        1.0917499        1.0234450        1.0120495      -0.35978189E-02  -0.21795122E-03
  7802.0150       0.88814836        1.0874015        1.0140471        1.0133002      -0.32957999E-02   0.64664334E-04
  7805.6140       0.87948810        1.0822424        1.0110173        1.0137716      -0.31336583E-02   0.95131785E-04
  7809.2040       0.86562049        1.0763893        1.0027661        1.0135348      -0.26118975E-02   0.41315359E-03
  7812.8090       0.86069550        1.0698803        1.0034809        1.0126656      -0.16101828E-03  -0.19975426E-04
  7816.3810       0.86446486        1.0628847        1.0128385        1.0112583      -0.27552611E-02  -0.43976258E-03
  7819.9940       0.84089894        1.0553351       0.99492488        1.0093610      -0.33207124E-02   0.94133240E-04
  7823.6050       0.84047604        1.0473931        1.0001512        1.0070682      -0.20752426E-02  -0.15230550E-03
  7827.2230       0.82589701        1.0391182       0.99123232        1.0044535      -0.44217289E-02  -0.15048912E-04
  7830.8140       0.80859979        1.0306700       0.97955303        1.0016232      -0.21837302E-02   0.74587003E-03
  7834.4380       0.81014140        1.0219868       0.98676419       0.99860955       0.95972341E-03  -0.88685347E-04
  7838.0600       0.81555395        1.0132308       0.99784316       0.99551998      -0.28263443E-02  -0.39796986E-03
  7841.6900       0.78964475        1.0044586       0.97761290       0.99242668      -0.19263540E-02   0.84175707E-03
  7845.3200       0.80156862       0.99577044       0.99521570       0.98941750       0.32848121E-02   0.14355829E-02
