# XDI/1.0 Athena/0.9.26
# Element.edge:                  K
# Element.symbol:                Co
# Column.1:                      energy eV
# Column.2:                      norm
# Column.3:                      nbkg
# Column.4:                      flat
# Column.5:                      fbkg
# Column.6:                      nder
# Column.7:                      nsec
# Athena.e0:                     7721.54
# Athena.eshift:                 0
# Athena.rbkg:                   1.0
# Athena.importance:             1
# Athena.standard:               None
# Athena.bkg_kweight:            3
# Athena.edge_step:              1.1936353
# Athena.fixed_step:             no
# Athena.pre_edge_range:         -82.964 -19.904
# Athena.pre_edge_line:          -0.032886 + 0.000218905 * E
# Athena.normalization_range:    45 125.256
# Athena.post_edge_polynomial:   15.633776 - 0.00165547 * E + 0 * E^2 + 0 * E^3
# Athena.spline_range_energy:    0.000 125.180
# Athena.clamps:                 0 24
# Athena.spline_range_k:         0.000 5.732
# Athena.kweight:                2
# Athena.window:                 hanning
# Athena.phase_correction:       no
# Athena.k_range:                .4 5.35
# Athena.dk:                     .5
# Athena.r_range:                .4 5.1
# Athena.dr:                     .5
# Athena.window:                 hanning
# Athena.plot_multiplier:        1
# Athena.y_offset:               0.2
# ///
#------------------------
#   e         norm        nbkg        flat        fbkg        nder        nsec
  7600.0670      -0.21982984      -0.19829845E-01  -0.21982985      -0.21982985       0.13254380E-01  -0.58165042E-03
  7610.6410      -0.79678025E-01   0.12032197      -0.79678028E-01  -0.79678028E-01   0.71040084E-02  -0.43170305E-03
  7624.5560      -0.45859777E-01   0.15414022      -0.45859779E-01  -0.45859779E-01   0.26824039E-02  -0.22066480E-03
  7637.2000      -0.84360584E-02   0.19156394      -0.84360587E-02  -0.84360587E-02   0.12433720E-02  -0.12063789E-03
  7649.6990      -0.14597676E-01   0.18540232      -0.14597677E-01  -0.14597677E-01  -0.35079450E-03   0.10250861E-03
  7662.1990      -0.17205570E-01   0.18279443      -0.17205571E-01  -0.17205571E-01   0.38059848E-02   0.23300143E-04
  7674.7330       0.80681347E-01   0.28068135       0.80681349E-01   0.80681349E-01   0.23250128E-03  -0.29333861E-03
  7687.3310      -0.11362348E-01   0.18863765      -0.11362348E-01  -0.11362348E-01  -0.35662013E-02   0.61005640E-05
  7700.0100      -0.94615229E-02   0.19053848      -0.94615232E-02  -0.94615232E-02   0.38670524E-03   0.10754737E-02
  7700.3880      -0.63131377E-02   0.19368686      -0.63131379E-02  -0.63131379E-02   0.10476259E-01   0.62391104E-02
  7700.7190      -0.20338555E-02   0.19796614      -0.20338556E-02  -0.20338556E-02   0.48102345E-02  -0.23814107E-01
  7701.0710      -0.30277475E-02   0.19697225      -0.30277476E-02  -0.30277476E-02  -0.57887766E-02  -0.48862405E-02
  7701.4340      -0.61728308E-02   0.19382717      -0.61728310E-02  -0.61728310E-02   0.13165726E-02   0.15095228E-01
  7701.7980      -0.20705992E-02   0.19792940      -0.20705993E-02  -0.20705993E-02   0.51854543E-02  -0.67258101E-02
  7702.1550      -0.24341183E-02   0.19756588      -0.24341183E-02  -0.24341183E-02  -0.35327365E-02  -0.15257447E-01
  7702.5150      -0.46035713E-02   0.19539643      -0.46035715E-02  -0.46035715E-02  -0.57541349E-02   0.19392676E-02
  7702.8790      -0.66001119E-02   0.19339989      -0.66001122E-02  -0.66001122E-02  -0.21287068E-02   0.81385370E-02
  7703.2420      -0.61511411E-02   0.19384886      -0.61511413E-02  -0.61511414E-02   0.16258146E-03   0.50317516E-02
  7703.6000      -0.64828907E-02   0.19351711      -0.64828909E-02  -0.64828910E-02   0.14991861E-02   0.97999485E-02
  7703.9610      -0.50732263E-02   0.19492677      -0.50732265E-02  -0.50732265E-02   0.72087444E-02   0.44909537E-02
  7704.3250      -0.12565510E-02   0.19874345      -0.12565510E-02  -0.12565511E-02   0.47551275E-02  -0.11287870E-01
  7704.6870      -0.16210037E-02   0.19837900      -0.16210038E-02  -0.16210038E-02  -0.98624901E-03  -0.12934807E-01
  7705.0200      -0.19419941E-02   0.19805801      -0.19419941E-02  -0.19419941E-02  -0.42345636E-02   0.14896936E-02
  7705.3810      -0.45597908E-02   0.19544021      -0.45597910E-02  -0.45597910E-02   0.47598325E-04   0.30342478E-01
  7705.7490      -0.19072949E-02   0.19809271      -0.19072949E-02  -0.19072950E-02   0.17885103E-01   0.34764844E-01
  7706.1120       0.85142191E-02   0.20851422       0.85142194E-02   0.85142194E-02   0.25460699E-01   0.16316887E-01
  7706.4710       0.16475330E-01   0.21647533       0.16475330E-01   0.16475330E-01   0.29665895E-01   0.10672501E-01
  7706.8310       0.29843997E-01   0.22984400       0.29843998E-01   0.29843998E-01   0.33134227E-01  -0.52004622E-02
  7707.1960       0.40497645E-01   0.24049765       0.40497646E-01   0.40497646E-01   0.25895560E-01  -0.23756839E-01
  7707.5570       0.48644174E-01   0.24864418       0.48644175E-01   0.48644175E-01   0.15886762E-01  -0.30351154E-01
  7707.9150       0.51920226E-01   0.25192023       0.51920228E-01   0.51920228E-01   0.40730803E-02  -0.19255224E-01
  7708.2800       0.51589011E-01   0.25158901       0.51589013E-01   0.51589013E-01   0.19652345E-02  -0.93748089E-02
  7708.6460       0.53356813E-01   0.25335681       0.53356815E-01   0.53356814E-01  -0.27799050E-02  -0.13137514E-01
  7708.9820       0.49637518E-01   0.24963752       0.49637519E-01   0.49637519E-01  -0.72573000E-02   0.11063678E-01
  7709.2900       0.48683112E-01   0.24868311       0.48683113E-01   0.48683113E-01   0.43451038E-02   0.20324953E-01
  7709.5960       0.52305411E-01   0.25230541       0.52305413E-01   0.52305413E-01   0.52222211E-02  -0.15282152E-01
  7709.9030       0.51884333E-01   0.25188433       0.51884335E-01   0.51884335E-01  -0.50228556E-02  -0.29529891E-01
  7710.2110       0.49216355E-01   0.24921636       0.49216357E-01   0.49216357E-01  -0.12938662E-01  -0.45040253E-02
  7710.5140       0.43978811E-01   0.24397881       0.43978812E-01   0.43978812E-01  -0.77748150E-02   0.23274787E-01
  7710.8230       0.44458168E-01   0.24445817       0.44458170E-01   0.44458170E-01   0.13055078E-02   0.31423286E-01
  7711.1080       0.44754282E-01   0.24475428       0.44754284E-01   0.44754284E-01   0.10890617E-01   0.85125526E-02
  7711.4160       0.50916304E-01   0.25091631       0.50916306E-01   0.50916306E-01   0.63534515E-02  -0.23635416E-01
  7711.7250       0.48674362E-01   0.24867436       0.48674363E-01   0.48674363E-01  -0.36924348E-02  -0.10046260E-01
  7712.0290       0.48652842E-01   0.24865284       0.48652843E-01   0.48652843E-01   0.19509408E-03  -0.44855959E-03
  7712.3330       0.48792979E-01   0.24879298       0.48792981E-01   0.48792981E-01  -0.39651590E-02   0.92026007E-02
  7712.6440       0.46214269E-01   0.24621427       0.46214270E-01   0.46214270E-01   0.58546935E-02   0.32548671E-01
  7712.9530       0.52422889E-01   0.25242289       0.52422891E-01   0.52422891E-01   0.16215017E-01   0.33635295E-01
  7713.2350       0.55797344E-01   0.25579735       0.55797346E-01   0.55797346E-01   0.25733153E-01   0.52423188E-01
  7713.5380       0.67476783E-01   0.26747679       0.67476786E-01   0.67476786E-01   0.46882582E-01   0.59086148E-01
  7713.8530       0.84770780E-01   0.28477078       0.84770782E-01   0.84770782E-01   0.62248393E-01   0.51283623E-01
  7714.1610       0.10625753       0.30625754       0.10625754       0.10625754       0.78832279E-01   0.20509642E-01
  7714.4700       0.13341030       0.33341030       0.13341030       0.13341030       0.74902842E-01  -0.45776974E-01
  7714.7770       0.15239768       0.35239769       0.15239769       0.15239769       0.50633663E-01  -0.60357267E-01
  7715.0770       0.16414493       0.36414493       0.16414493       0.16414493       0.38265981E-01  -0.13386620E-02
  7715.3860       0.17570166       0.37570167       0.17570167       0.17570167       0.49818418E-01   0.17606371E-01
  7715.6700       0.19368725       0.39368726       0.19368726       0.19368726       0.48706559E-01  -0.50591311E-01
  7715.9720       0.20424371       0.40424372       0.20424372       0.20424372       0.20171910E-01  -0.73572660E-01
  7716.1370       0.20310753       0.40310754       0.20310754       0.20310754       0.14348126E-01   0.83331104E-01
  7716.2550       0.20830423       0.40830424       0.20830424       0.20830424       0.43754612E-01   0.17007030
  7716.3670       0.21317109       0.41317110       0.21317110       0.21317110       0.53464296E-01   0.12734613
  7716.4990       0.22134952       0.42134952       0.22134952       0.22134952       0.74827068E-01   0.65429542E-01
  7716.6200       0.23210234       0.43210235       0.23210235       0.23210235       0.70017970E-01  -0.10764020
  7716.7330       0.23773372       0.43773373       0.23773373       0.23773373       0.49639261E-01  -0.16697212
  7716.8670       0.24436324       0.44436325       0.24436325       0.24436325       0.28775856E-01  -0.41554810E-01
  7716.9880       0.24507156       0.44507157       0.24507157       0.24507157       0.39042784E-01   0.11542480
  7717.1010       0.25349925       0.45349926       0.25349926       0.25349926       0.55785260E-01   0.28835338E-01
  7717.2330       0.25873895       0.45873896       0.25873896       0.25873896       0.46107442E-01   0.12307931
  7717.3500       0.26498000       0.46498001       0.26498001       0.26498001       0.86432009E-01   0.78547367E-01
  7717.4620       0.27853188       0.47853189       0.27853189       0.27853189       0.64094789E-01  -0.13051605
  7717.5920       0.28049094       0.48049095       0.28049095       0.28049095       0.54847124E-01   0.10125833
  7717.7100       0.29213397       0.49213398       0.29213398       0.29213398       0.89206855E-01   0.15364528
  7717.8420       0.30279266       0.50279267       0.30279267       0.30279267       0.93258444E-01   0.43714161E-01
  7717.9600       0.31544858       0.51544859       0.31544859       0.31544859       0.10013540       0.30800421E-01
  7718.0740       0.32602407       0.52602408       0.32602408       0.32602408       0.10040414      -0.22037283E-01
  7718.2060       0.34014800       0.54014801       0.34014801       0.34014801       0.94714224E-01  -0.82456758E-01
  7718.3280       0.35008148       0.55008149       0.35008149       0.35008149       0.79460126E-01   0.20026588E-01
  7718.4410       0.35882113       0.55882114       0.35882114       0.35882114       0.99420472E-01   0.70334437E-01
  7718.5730       0.37443950       0.57443951       0.37443951       0.37443951       0.96692063E-01   0.59610520E-03
  7718.6930       0.38318753       0.58318754       0.38318754       0.38318754       0.99570690E-01   0.48449548E-01
  7718.8050       0.39753990       0.59753991       0.39753991       0.39753991       0.10793236       0.94749283E-01
  7718.9360       0.40941509       0.60941511       0.40941511       0.40941511       0.12259477       0.17621782
  7719.0560       0.42831118       0.62831120       0.42831120       0.42831120       0.15216303       0.13695885E-01
  7719.1680       0.44471692       0.64471693       0.44471693       0.44471693       0.12577221      -0.10456452
  7719.2990       0.45887383       0.65887385       0.45887385       0.45887385       0.12675385       0.15356812
  7719.4200       0.47665889       0.67665890       0.47665890       0.47665890       0.16447138       0.11796469
  7719.5350       0.49768908       0.69768909       0.49768909       0.49768909       0.15459352      -0.91717860E-01
  7719.6660       0.51468889       0.71468891       0.51468891       0.51468891       0.14190878      -0.63217884E-01
  7719.7880       0.53359200       0.73359202       0.53359202       0.53359202       0.13859940       0.12917028
  7719.9010       0.54725975       0.74725977       0.54725977       0.54725977       0.17226380       0.29960356
  7720.0340       0.57596889       0.77596891       0.57596891       0.57596891       0.21230187       0.12834685
  7720.1540       0.60097212       0.80097215       0.60097215       0.60097215       0.20473555      -0.11624974
  7720.2670       0.62367228       0.82367230       0.62367230       0.62367230       0.18521568      -0.10206895
  7720.3970       0.64597954       0.84597956       0.64597956       0.64597956       0.17993280      -0.90058112E-01
  7720.5160       0.66847554       0.86847557       0.66847557       0.66847557       0.16279121      -0.23474211E-01
  7720.6460       0.68651455       0.88651457       0.68651457       0.68651457       0.17408772       0.16515516
  7720.7660       0.71199747       0.91199750       0.71199750       0.71199750       0.20408000       0.16305428
  7720.8790       0.73406519       0.93406521       0.73406521       0.73406521       0.21207937       0.75784279E-01
  7721.0130       0.76438108       0.96438110       0.76438110       0.76438110       0.22279872      -0.15777983
  7721.1330       0.79065606       0.99065609       0.79065609       0.79065609       0.17200329      -0.91982324E-01
  7721.2460       0.80445784        1.0044579       0.80445787       0.80445787       0.20136684       0.31372491
  7721.3790       0.84019231        1.0401923       0.84019233       0.84019233       0.24917962       0.19361669
  7721.5000       0.86774947        1.0677495       0.86768665       0.86768665       0.25054548      -0.12536892
  7721.6120       0.89856940        2.2335420       0.89868246        2.0336550       0.21996866      -0.22300671
  7721.7440       0.92142182        2.2165530       0.92174216        2.0168733       0.19613184       0.16904541
  7721.8620       0.94760236        2.2014985       0.94810800        2.0020041       0.26223001       0.14075138E-01
  7721.9740       0.98173472        2.1873247       0.98241623        1.9880062       0.19936912      -0.52637575
  7722.1040       0.99584969        2.1710132       0.99673534        1.9718989       0.13484708       0.20832837E-01
  7722.2260        1.0157162        2.1558420        1.0167934        1.9569192       0.20461900       0.28857088
  7722.3580        1.0478229        2.1395754        1.0491074        1.9408599       0.20814408      -0.17413149
  7722.4790        1.0683766        2.1247991        1.0698512        1.9262736       0.16056373      -0.26615683
  7722.5930        1.0855554        2.1109949        1.0872089        1.9126484       0.14559722      -0.20609407
  7722.7240        1.1040480        2.0952723        1.1059072        1.8971315       0.11007068      -0.13053356
  7722.8460        1.1134033        2.0807639        1.1154541        1.8828147       0.11257223       0.12976095
  7722.9580        1.1303899        2.0675581        1.1326166        1.8697848       0.14043475       0.17008173
  7723.0510        1.1421924        2.0566747        1.1445651        1.8590474       0.14743899      -0.86689072E-01
  7723.2130        1.1679868        2.0378938        1.1706139        1.8405209       0.11832903      -0.11727033
  7723.4060        1.1841992        2.0158113        1.1871294        1.8187415       0.10580802       0.14677700E-01
  7723.6030        1.2092519        1.9935969        1.2124915        1.7968364       0.12405334      -0.30529303E-01
  7723.8000        1.2330762        1.9717091        1.2366251        1.7752580       0.93779479E-01  -0.17920719
  7724.0000        1.2464824        1.9498198        1.2503453        1.7536827       0.52908080E-01  -0.20907457
  7724.1980        1.2541336        1.9284764        1.2583075        1.7326502       0.10567800E-01  -0.12650101
  7724.3960        1.2506672        1.9074558        1.2551520        1.7119405       0.28136785E-02   0.51240883E-02
  7724.5920        1.2552422        1.8869632        1.2600348        1.6917558       0.12586691E-01  -0.40222403E-01
  7724.7890        1.2556138        1.8666803        1.2607157        1.6717821      -0.12993726E-01  -0.10579435
  7725.0080        1.2498368        1.8444990        1.2552827        1.6499448      -0.31423759E-01  -0.26389595E-01
  7725.7230        1.2262640        1.7747313        1.2328326        1.5812998      -0.37641607E-01  -0.69389438E-02
  7726.5070        1.1934121        1.7027920        1.2012118        1.5105917      -0.41825236E-01   0.22575466E-02
  7727.3020        1.1602220        1.6345688        1.1692701        1.4436169      -0.34076941E-01   0.50112020E-02
  7728.0660        1.1402861        1.5733472        1.1505339        1.3835950      -0.34012772E-01   0.33001771E-02
  7728.8300        1.1082505        1.5162423        1.1196980        1.3276898      -0.29034271E-01   0.14286941E-01
  7729.5930        1.0959508        1.4631847        1.1085964        1.2758304      -0.12196612E-01   0.16936791E-01
  7730.3530        1.0896750        1.4141474        1.1035141        1.2279864      -0.32395376E-02   0.69829725E-02
  7731.1470        1.0909165        1.3668336        1.1060025        1.1819195      -0.13450731E-02   0.10590820E-02
  7731.9100        1.0875807        1.3249986        1.1038648        1.1412826      -0.15905470E-02  -0.45496998E-02
  7732.6790        1.0884798        1.2862960        1.1059714        1.1037876      -0.83152132E-02  -0.44923608E-02
  7733.4410        1.0748501        1.2512371        1.0935383        1.0699252      -0.84683513E-02   0.56497763E-02
  7734.2140        1.0754809        1.2188802        1.0953829        1.0387822       0.35719345E-03  -0.75337286E-03
  7734.9760        1.0753984        1.1900092        1.0964970        1.0111078      -0.96247786E-02  -0.99648177E-02
  7735.7750        1.0604566        1.1628141        1.0828099       0.98516736      -0.15197887E-01   0.56069304E-02
  7736.5390        1.0516441        1.1396154        1.0751971       0.96316838      -0.86114633E-03   0.60604457E-02
  7737.3090        1.0591356        1.1188688        1.0838978       0.94363085      -0.59011632E-02  -0.12745404E-01
  7738.0780        1.0425622        1.1006494        1.0685319       0.92661909      -0.20476324E-01  -0.74970933E-02
  7738.8440        1.0277045        1.0848472        1.0548770       0.91201969      -0.17409201E-01   0.55870113E-02
  7739.6160        1.0157869        1.0711505        1.0441717       0.89953528      -0.11883500E-01   0.19950351E-02
  7740.3880        1.0093563        1.0595515        1.0389534       0.88914851      -0.14328867E-01  -0.57237669E-02
  7741.1610       0.99364879        1.0498980        1.0244597       0.88070893      -0.20726720E-01  -0.64551773E-02
  7741.9520       0.97693975        1.0419035        1.0089928       0.87395647      -0.24424765E-01  -0.19998919E-03
  7744.4520       0.91326689        1.0274585       0.94924570       0.86343728      -0.21384884E-01   0.16677844E-02
  7746.9690       0.86965179        1.0257865       0.90958305       0.86571772      -0.16057490E-01   0.17785930E-02
  7749.4530       0.83296339        1.0320475       0.87679528       0.87587936      -0.12490141E-01   0.11258523E-02
  7751.9350       0.80762575        1.0414526       0.85535513       0.88918196      -0.10466508E-01   0.10265740E-02
  7754.4550       0.78060992        1.0506125       0.83229647       0.90229908      -0.73552175E-02   0.20565647E-02
  7756.9490       0.77074669        1.0588144       0.82634958       0.91441723      -0.15489238E-03   0.25574463E-02
  7759.4300       0.77983933        1.0661454       0.83933814       0.92564422       0.53680779E-02   0.14861822E-02
  7761.9470       0.79757634        1.0727639       0.86102761       0.93621513       0.72730461E-02   0.10902194E-02
  7764.4680       0.81648093        1.0785912       0.88389094       0.94600120       0.10860603E-01   0.71004203E-03
  7766.9650       0.85207485        1.0835972       0.92340591       0.95492819       0.10836037E-01   0.69092564E-04
  7769.4620       0.87059610        1.0878656       0.94584821       0.96311770       0.11205652E-01  -0.68970365E-04
  7771.9870       0.90834963        1.0914572       0.98756676       0.97067429       0.10489668E-01  -0.13430544E-02
  7774.4880       0.92331717        1.0943212        1.0064616       0.97746560       0.44554601E-02  -0.16900127E-02
  7776.9970       0.93067148        1.0965259        1.0177558       0.98361020       0.20227041E-02  -0.57553011E-03
  7780.5620       0.93560308        1.0985561        1.0282856       0.99123855       0.95969026E-03  -0.85453666E-03
  7784.1490       0.93753519        1.0993582        1.0358504       0.99767337      -0.40889420E-02  -0.56092608E-03
  7787.6930       0.90644483        1.0990000        1.0103252        1.0028803      -0.30402736E-02   0.69535299E-03
  7791.2820       0.91584892        1.0975441        1.0253651        1.0070602       0.87101082E-03   0.18305009E-03
  7794.8620       0.91268911        1.0950685        1.0278269        1.0102063      -0.17279875E-02  -0.62078286E-03
  7798.4360       0.90348689        1.0916502        1.0242370        1.0124003      -0.35700698E-02  -0.21521161E-03
  7802.0150       0.88715240        1.0873517        1.0135226        1.0137219      -0.32673962E-02   0.52160924E-04
  7805.6140       0.88003352        1.0822190        1.0120553        1.0142408      -0.31956586E-02   0.81755097E-04
  7809.2040       0.86417881        1.0763634        1.0018379        1.0140225      -0.26796588E-02   0.46135335E-03
  7812.8090       0.86075338        1.0698177        1.0040735        1.0131377       0.12377874E-03  -0.15346504E-04
  7816.3810       0.86506717        1.0627469        1.0139964        1.0116761      -0.27898006E-02  -0.51618556E-03
  7819.9940       0.84070866        1.0550767       0.99531138        1.0096794      -0.35850145E-02   0.72071600E-04
  7823.6050       0.83916902        1.0469644       0.99944211        1.0072374      -0.22691554E-02  -0.11968428E-03
  7827.2230       0.82430494        1.0384636       0.99025938        1.0044180      -0.44502122E-02   0.55159602E-04
  7830.8140       0.80708744        1.0297314       0.97868085        1.0013247      -0.18715098E-02   0.73773553E-03
  7834.4380       0.81080199        1.0206959       0.98808618       0.99798001       0.87254968E-03  -0.13177330E-03
  7838.0600       0.81340994        1.0115166       0.99638177       0.99448843      -0.28263392E-02  -0.37360326E-03
  7841.6900       0.79030538        1.0022436       0.97897741       0.99091561      -0.18368212E-02   0.75999842E-03
  7845.3200       0.80007462       0.99297274       0.99444685       0.98734494       0.26912494E-02   0.12474024E-02
