# XDI/1.0 Athena/0.9.26
# Element.edge:                  K
# Element.symbol:                Co
# Column.1:                      energy eV
# Column.2:                      norm
# Column.3:                      nbkg
# Column.4:                      flat
# Column.5:                      fbkg
# Column.6:                      nder
# Column.7:                      nsec
# Athena.e0:                     7721.54
# Athena.eshift:                 0
# Athena.rbkg:                   1.0
# Athena.importance:             1
# Athena.standard:               None
# Athena.bkg_kweight:            3
# Athena.edge_step:              1.1928472
# Athena.fixed_step:             no
# Athena.pre_edge_range:         -82.964 -19.904
# Athena.pre_edge_line:          0.045501 + 0.000208697 * E
# Athena.normalization_range:    45 125.256
# Athena.post_edge_polynomial:   15.561638 - 0.00164628 * E + 0 * E^2 + 0 * E^3
# Athena.spline_range_energy:    0.000 125.180
# Athena.clamps:                 0 24
# Athena.spline_range_k:         0.000 5.732
# Athena.kweight:                2
# Athena.window:                 hanning
# Athena.phase_correction:       no
# Athena.k_range:                .4 5.35
# Athena.dk:                     .5
# Athena.r_range:                .4 5.1
# Athena.dr:                     .5
# Athena.window:                 hanning
# Athena.plot_multiplier:        1
# Athena.y_offset:               0.2
# ///
#------------------------
#   e         norm        nbkg        flat        fbkg        nder        nsec
  7600.0670      -0.21208438      -0.12084386E-01  -0.21208439      -0.21208439       0.12106532E-01  -0.50478947E-03
  7610.6410      -0.84069915E-01   0.11593008      -0.84069917E-01  -0.84069917E-01   0.67688878E-02  -0.37663224E-03
  7624.5560      -0.46321087E-01   0.15367891      -0.46321088E-01  -0.46321088E-01   0.28831847E-02  -0.20851701E-03
  7637.2000      -0.74954125E-02   0.19250459      -0.74954127E-02  -0.74954127E-02   0.12308844E-02  -0.12958177E-03
  7649.6990      -0.15372960E-01   0.18462704      -0.15372960E-01  -0.15372960E-01  -0.37488981E-03   0.10185769E-03
  7662.1990      -0.16867283E-01   0.18313272      -0.16867283E-01  -0.16867283E-01   0.37772248E-02   0.24199290E-04
  7674.7330       0.79186086E-01   0.27918609       0.79186088E-01   0.79186088E-01   0.23091522E-03  -0.28872242E-03
  7687.3310      -0.11063921E-01   0.18893608      -0.11063922E-01  -0.11063922E-01  -0.34789470E-02   0.70198242E-05
  7700.0100      -0.87512581E-02   0.19124874      -0.87512584E-02  -0.87512583E-02   0.40835532E-03   0.10203927E-02
  7700.3880      -0.57320260E-02   0.19426797      -0.57320262E-02  -0.57320262E-02   0.98443202E-02   0.54798613E-02
  7700.7190      -0.17716351E-02   0.19822836      -0.17716351E-02  -0.17716351E-02   0.42935770E-02  -0.24294865E-01
  7701.0710      -0.27995129E-02   0.19720049      -0.27995130E-02  -0.27995130E-02  -0.67490728E-02  -0.58806133E-02
  7701.4340      -0.65972221E-02   0.19340278      -0.65972223E-02  -0.65972223E-02   0.88938512E-04   0.18352004E-01
  7701.7980      -0.27348546E-02   0.19726515      -0.27348547E-02  -0.27348547E-02   0.65928338E-02  -0.44121121E-02
  7702.1550      -0.18437889E-02   0.19815621      -0.18437890E-02  -0.18437890E-02  -0.30921943E-02  -0.16934995E-01
  7702.5150      -0.49519580E-02   0.19504804      -0.49519581E-02  -0.49519581E-02  -0.55495573E-02   0.28842461E-03
  7702.8790      -0.58616684E-02   0.19413833      -0.58616686E-02  -0.58616686E-02  -0.28833749E-02   0.52235917E-02
  7703.2420      -0.70481715E-02   0.19295183      -0.70481717E-02  -0.70481717E-02  -0.17520061E-02   0.94663655E-02
  7703.6000      -0.71248648E-02   0.19287513      -0.71248651E-02  -0.71248650E-02   0.39418747E-02   0.14962630E-01
  7703.9610      -0.42139636E-02   0.19578604      -0.42139637E-02  -0.42139637E-02   0.90061246E-02  -0.25546539E-03
  7704.3250      -0.59542449E-03   0.19940458      -0.59542451E-03  -0.59542449E-03   0.37566623E-02  -0.17510650E-01
  7704.6870      -0.14866268E-02   0.19851337      -0.14866269E-02  -0.14866268E-02  -0.37066072E-02  -0.11164683E-01
  7705.0200      -0.31715165E-02   0.19682848      -0.31715166E-02  -0.31715166E-02  -0.40027923E-02   0.70767623E-02
  7705.3810      -0.42645647E-02   0.19573544      -0.42645648E-02  -0.42645648E-02   0.12046658E-02   0.28149409E-01
  7705.7490      -0.22933151E-02   0.19770668      -0.22933152E-02  -0.22933152E-02   0.16518126E-01   0.31982010E-01
  7706.1120       0.78101857E-02   0.20781019       0.78101860E-02   0.78101860E-02   0.24583515E-01   0.18559624E-01
  7706.4710       0.15455983E-01   0.21545598       0.15455983E-01   0.15455983E-01   0.29918175E-01   0.13204297E-01
  7706.8310       0.29321354E-01   0.22932135       0.29321354E-01   0.29321354E-01   0.34077404E-01  -0.59490881E-02
  7707.1960       0.40162101E-01   0.24016210       0.40162102E-01   0.40162102E-01   0.25605086E-01  -0.23586828E-01
  7707.5570       0.47910646E-01   0.24791065       0.47910647E-01   0.47910647E-01   0.16953367E-01  -0.29955782E-01
  7707.9150       0.52351572E-01   0.25235157       0.52351574E-01   0.52351574E-01   0.40668786E-02  -0.21365092E-01
  7708.2800       0.50850999E-01   0.25085100       0.50851001E-01   0.50851001E-01   0.15064058E-02  -0.55621796E-02
  7708.6460       0.53452755E-01   0.25345276       0.53452757E-01   0.53452757E-01   0.92537708E-06  -0.12629161E-01
  7708.9820       0.50851649E-01   0.25085165       0.50851650E-01   0.50851650E-01  -0.73592654E-02   0.48075735E-02
  7709.2900       0.48713388E-01   0.24871339       0.48713389E-01   0.48713390E-01   0.30970027E-02   0.21607988E-01
  7709.5960       0.52753209E-01   0.25275321       0.52753210E-01   0.52753210E-01   0.59080391E-02  -0.15540433E-01
  7709.9030       0.52335016E-01   0.25233502       0.52335018E-01   0.52335018E-01  -0.64292826E-02  -0.29829375E-01
  7710.2110       0.48799200E-01   0.24879920       0.48799201E-01   0.48799201E-01  -0.12437026E-01  -0.24054000E-03
  7710.5140       0.44735993E-01   0.24473599       0.44735994E-01   0.44735994E-01  -0.65762526E-02   0.18593714E-01
  7710.8230       0.44774533E-01   0.24477453       0.44774535E-01   0.44774535E-01  -0.10576735E-02   0.25304252E-01
  7711.1080       0.44107735E-01   0.24410774       0.44107736E-01   0.44107736E-01   0.84544733E-02   0.13772789E-01
  7711.4160       0.49788036E-01   0.24978804       0.49788037E-01   0.49788037E-01   0.71095902E-02  -0.21313868E-01
  7711.7250       0.48494352E-01   0.24849435       0.48494353E-01   0.48494353E-01  -0.46961830E-02  -0.10633198E-01
  7712.0290       0.46909276E-01   0.24690928       0.46909277E-01   0.46909277E-01   0.59143981E-03  -0.21715242E-02
  7712.3330       0.48853947E-01   0.24885395       0.48853949E-01   0.48853949E-01  -0.60164697E-02   0.43718270E-02
  7712.6440       0.43209147E-01   0.24320915       0.43209148E-01   0.43209148E-01   0.32801134E-02   0.39890762E-01
  7712.9530       0.50887618E-01   0.25088762       0.50887619E-01   0.50887619E-01   0.18715803E-01   0.37171562E-01
  7713.2350       0.54270186E-01   0.25427019       0.54270188E-01   0.54270188E-01   0.25248506E-01   0.49251211E-01
  7713.5380       0.65657994E-01   0.26565800       0.65657996E-01   0.65657996E-01   0.47527761E-01   0.63309427E-01
  7713.8530       0.83642342E-01   0.28364235       0.83642345E-01   0.83642345E-01   0.64373732E-01   0.42423063E-01
  7714.1610       0.10576283       0.30576283       0.10576283       0.10576283       0.73957329E-01   0.12434430E-02
  7714.4700       0.12927401       0.32927402       0.12927402       0.12927402       0.65140937E-01  -0.44539751E-01
  7714.7770       0.14588965       0.34588965       0.14588965       0.14588965       0.46520843E-01  -0.39769061E-01
  7715.0770       0.15751217       0.35751217       0.15751217       0.15751217       0.41001116E-01   0.53528404E-02
  7715.3860       0.17085933       0.37085933       0.17085933       0.17085933       0.49780723E-01   0.40925847E-02
  7715.6700       0.18703213       0.38703214       0.18703214       0.18703214       0.43428019E-01  -0.40782036E-01
  7715.9720       0.19630815       0.39630815       0.19630815       0.19630815       0.25882450E-01  -0.45778465E-01
  7716.1370       0.19911924       0.39911924       0.19911924       0.19911924       0.22049476E-01   0.10211218E-01
  7716.2550       0.20254815       0.40254815       0.20254815       0.20254815       0.28772225E-01   0.12167014
  7716.3670       0.20573685       0.40573686       0.20573686       0.20573686       0.50033608E-01   0.19799137
  7716.4990       0.21475635       0.41475635       0.21475635       0.21475635       0.77082119E-01   0.49291753E-01
  7716.6200       0.22523863       0.42523863       0.22523863       0.22523863       0.62504421E-01  -0.91839721E-01
  7716.7330       0.22938238       0.42938239       0.22938239       0.22938239       0.55591624E-01  -0.36660336E-01
  7716.8670       0.23896976       0.43896977       0.23896977       0.23896977       0.53449319E-01  -0.51486553E-02
  7716.9880       0.24301196       0.44301197       0.24301197       0.24301197       0.54278717E-01  -0.16289069E-02
  7717.1010       0.25167098       0.45167099       0.25167099       0.25167099       0.53068154E-01  -0.98748093E-01
  7717.2330       0.25601366       0.45601366       0.25601366       0.25601366       0.30085434E-01   0.54778594E-01
  7717.3500       0.25916225       0.45916226       0.25916226       0.25916226       0.66708024E-01   0.20574948
  7717.4620       0.27128979       0.47128980       0.27128980       0.27128980       0.77202065E-01  -0.91604830E-01
  7717.5920       0.27784515       0.47784516       0.27784516       0.27784516       0.44539655E-01   0.33445029E-01
  7717.7100       0.28233563       0.48233564       0.28233564       0.28233564       0.85496433E-01   0.28720988
  7717.8420       0.29921926       0.49921927       0.29921927       0.29921927       0.11634213      -0.26971228E-01
  7717.9600       0.31142116       0.51142117       0.31142117       0.31142117       0.78753626E-01  -0.13482825
  7718.0740       0.31749010       0.51749011       0.31749011       0.31749011       0.85061971E-01   0.12475196
  7718.2060       0.33234640       0.53234641       0.33234641       0.33234641       0.10944261       0.45712822E-01
  7718.3280       0.34528852       0.54528853       0.34528853       0.34528853       0.96673028E-01  -0.17878236
  7718.4410       0.35506457       0.55506458       0.35506458       0.35506458       0.67428753E-01  -0.75819637E-01
  7718.5730       0.36180857       0.56180858       0.36180858       0.36180858       0.78097217E-01   0.15146072
  7718.6930       0.37474506       0.57474508       0.37474508       0.37474508       0.10559685       0.20383372
  7718.8050       0.38630704       0.58630705       0.38630705       0.38630705       0.12538664       0.57866376E-01
  7718.9360       0.40521402       0.60521403       0.40521403       0.40521403       0.11965838       0.32933370E-01
  7719.0560       0.41634129       0.61634130       0.41634130       0.41634130       0.13365291       0.49999482E-01
  7719.1680       0.43622149       0.63622151       0.43622151       0.43622151       0.13125826      -0.72237116E-01
  7719.2990       0.44823705       0.64823706       0.44823706       0.44823706       0.11609930       0.21629094
  7719.4200       0.46547852       0.66547853       0.46547853       0.46547853       0.18576358       0.19531460
  7719.5350       0.49207725       0.69207727       0.49207727       0.49207727       0.16219354      -0.27379566
  7719.6660       0.50537813       0.70537814       0.50537814       0.50537814       0.11840985      -0.21940849E-01
  7719.7880       0.52203495       0.72203496       0.52203496       0.52203496       0.15664251       0.21779904
  7719.9010       0.54218912       0.74218913       0.54218913       0.54218913       0.16959262       0.97602390E-01
  7720.0340       0.56375473       0.76375475       0.56375475       0.56375475       0.18065269       0.18990073
  7720.1540       0.58789425       0.78789427       0.58789427       0.58789427       0.21763751       0.85869189E-01
  7720.2670       0.61446427       0.81446429       0.61446429       0.61446429       0.20066021      -0.22798578
  7720.3970       0.63665468       0.83665470       0.63665470       0.63665470       0.16223696      -0.10701728
  7720.5160       0.65486127       0.85486129       0.65486129       0.65486129       0.17401291       0.33862988E-01
  7720.6460       0.67998390       0.87998392       0.67998392       0.67998392       0.17066885       0.14052981
  7720.7660       0.69752849       0.89752851       0.69752851       0.69752851       0.20914537       0.31676597
  7720.8790       0.72871477       0.92871479       0.72871479       0.72871479       0.24447532      -0.56674359E-01
  7721.0130       0.75791389       0.95791391       0.75791391       0.75791391       0.19514680      -0.24926189
  7721.1330       0.77828205       0.97828208       0.77828208       0.77828208       0.18116280       0.81361557E-02
  7721.2460       0.80012482        1.0001248       0.80012485       0.80012485       0.19704252       0.15422582
  7721.3790       0.82675451        1.0267545       0.82675454       0.82675454       0.21910235       0.23616848
  7721.5000       0.85577682        1.0557768       0.85571461       0.85571461       0.25702932       0.16487296
  7721.6120       0.88664234        2.2465984       0.88675431        2.0467104       0.25751775      -0.13021925
  7721.7440       0.91861115        2.2294313       0.91892838        2.0297485       0.22525582      -0.80344375E-01
  7721.8620       0.94295630        2.2142189       0.94345703        2.0147196       0.23743166      -0.11713888
  7721.9740       0.97322043        2.1998965       0.97389534        2.0005714       0.19831388      -0.33247823
  7722.1040       0.99094826        2.1834139       0.99182532        1.9842910       0.15697192       0.19249688E-01
  7722.2260        1.0127774        2.1680835        1.0138441        1.9691503       0.20316480       0.21722226
  7722.3580        1.0425521        2.1516462        1.0438242        1.9529183       0.21214638      -0.78398907E-01
  7722.4790        1.0664504        2.1367148        1.0679106        1.9381750       0.18332988      -0.27390643
  7722.5930        1.0856346        2.1227658        1.0872721        1.9244032       0.14777837      -0.35706566
  7722.7240        1.1026561        2.1068781        1.1044973        1.9087193       0.95848789E-01  -0.14368195
  7722.8460        1.1098844        2.0922173        1.1119153        1.8942483       0.11142683       0.34591567
  7722.9580        1.1287300        2.0788729        1.1309351        1.8810779       0.17679306       0.22951084
  7723.0510        1.1461270        2.0678751        1.1484767        1.8702248       0.15847656      -0.24581049
  7723.2130        1.1691415        2.0488969        1.1717432        1.8514985       0.11411138      -0.13594447
  7723.4060        1.1866365        2.0265824        1.1895383        1.8294841       0.11021627       0.28626479E-01
  7723.6030        1.2121258        2.0041344        1.2153340        1.8073425       0.12527571      -0.35783308E-01
  7723.8000        1.2359951        1.9820166        1.2395096        1.7855310       0.96117648E-01  -0.17218064
  7724.0000        1.2502845        1.9598971        1.2541101        1.7637225       0.56919993E-01  -0.19106199
  7724.1980        1.2586493        1.9383290        1.2627827        1.7424624       0.20074975E-01  -0.13536430
  7724.3960        1.2582342        1.9170872        1.2626756        1.7215285       0.33157315E-02  -0.18131635E-01
  7724.5920        1.2599557        1.8963789        1.2647018        1.7011250       0.12931111E-01  -0.10309322E-01
  7724.7890        1.2633162        1.8758824        1.2683686        1.6809348      -0.73583203E-03  -0.10578223
  7725.0080        1.2596496        1.8534675        1.2650426        1.6588605      -0.31074295E-01  -0.42562713E-01
  7725.7230        1.2342928        1.7829642        1.2407977        1.5894691      -0.40489406E-01  -0.99182806E-02
  7726.5070        1.1989560        1.7102654        1.2066801        1.5179895      -0.45941798E-01   0.18792011E-02
  7727.3020        1.1617507        1.6413208        1.1707111        1.4502812      -0.37522148E-01   0.74672991E-02
  7728.0660        1.1404589        1.5794508        1.1506074        1.3895992      -0.34300279E-01   0.56344298E-02
  7728.8300        1.1093398        1.5217400        1.1206764        1.3330765      -0.28912739E-01   0.15718522E-01
  7729.5930        1.0963092        1.4681183        1.1088323        1.2806413      -0.10298095E-01   0.16778686E-01
  7730.3530        1.0936558        1.4185584        1.1073608        1.2322634      -0.33587994E-02   0.52530839E-02
  7731.1470        1.0910896        1.3707394        1.1060293        1.1856790      -0.21348029E-02   0.29355175E-02
  7731.9100        1.0903320        1.3284563        1.1064582        1.1445825       0.12118013E-02  -0.35676653E-02
  7732.6790        1.0929461        1.2893381        1.1102682        1.1066601      -0.76004662E-02  -0.57853589E-02
  7733.4410        1.0786956        1.2539013        1.0972027        1.0724083      -0.76455831E-02   0.42405786E-02
  7734.2140        1.0812101        1.2211944        1.1009193        1.0409035      -0.10911781E-02  -0.36684736E-02
  7734.9760        1.0770207        1.1920099        1.0979148        1.0129040      -0.13276690E-01  -0.92776765E-02
  7735.7750        1.0604852        1.1645179        1.0826218       0.98665454      -0.15573631E-01   0.82455259E-02
  7736.5390        1.0526791        1.1410646        1.0760038       0.96438928      -0.38893324E-03   0.69640348E-02
  7737.3090        1.0598886        1.1200887        1.0844107       0.94461080      -0.48908018E-02  -0.13070529E-01
  7738.0780        1.0451522        1.1016665        1.0708701       0.92738447      -0.20504478E-01  -0.80739456E-02
  7738.8440        1.0284142        1.0856867        1.0553234       0.91259584      -0.17284308E-01   0.59618955E-02
  7739.6160        1.0185689        1.0718343        1.0466786       0.89994401      -0.11335083E-01   0.10661141E-02
  7740.3880        1.0109128        1.0601016        1.0402231       0.88941180      -0.15638228E-01  -0.56402652E-02
  7741.1610       0.99440783        1.0503349        1.0249201       0.88084717      -0.20049292E-01  -0.53621440E-02
  7741.9520       0.97955574        1.0422442        1.0112981       0.87398656      -0.24024621E-01  -0.56224925E-03
  7744.4520       0.91534280        1.0276099       0.95097289       0.86324000      -0.21899654E-01   0.16231915E-02
  7746.9690       0.86968517        1.0258849       0.90922942       0.86542908      -0.15881069E-01   0.18604830E-02
  7749.4530       0.83592157        1.0321805       0.87932864       0.87558752      -0.12595379E-01   0.10450695E-02
  7751.9350       0.80713652        1.0416586       0.85440331       0.88892536      -0.10691254E-01   0.10164400E-02
  7754.4550       0.78244392        1.0508952       0.83362952       0.90208076      -0.75111463E-02   0.19680428E-02
  7756.9490       0.76947563        1.0591703       0.82453962       0.91423429      -0.82348745E-03   0.25707921E-02
  7759.4300       0.77834707        1.0665720       0.83726921       0.92549408       0.52785446E-02   0.17077452E-02
  7761.9470       0.79585780        1.0732596       0.85869410       0.93609591       0.77118228E-02   0.11971423E-02
  7764.4680       0.81719923        1.0791540       0.88395590       0.94591068       0.11309748E-01   0.53574923E-03
  7766.9650       0.85261011        1.0842243       0.92324983       0.95486395       0.10400212E-01  -0.82649107E-04
  7769.4620       0.86913789        1.0885549       0.94366065       0.96307768       0.10896998E-01   0.12995931E-03
  7771.9870       0.90733484        1.0922074       0.98578419       0.97065677       0.11052868E-01  -0.11575283E-02
  7774.4880       0.92468961        1.0951299        1.0070282       0.97746849       0.50792609E-02  -0.18100408E-02
  7776.9970       0.93278193        1.0973915        1.0190223       0.98363176       0.19845636E-02  -0.69646864E-03
  7780.5620       0.93674384        1.0994996        1.0285280       0.99128373       0.84891036E-03  -0.81957912E-03
  7784.1490       0.93885334        1.1003769        1.0362156       0.99773911      -0.38770663E-02  -0.54639605E-03
  7787.6930       0.90909649        1.1000900        1.0119700        1.0029635      -0.30474399E-02   0.63580145E-03
  7791.2820       0.91711595        1.0987037        1.0255707        1.0071584       0.65810545E-03   0.17346361E-03
  7794.8620       0.91381444        1.0962951        1.0278364        1.0103170      -0.18038792E-02  -0.56647897E-03
  7798.4360       0.90421100        1.0929416        1.0237908        1.0125214      -0.33944851E-02  -0.21712951E-03
  7802.0150       0.88953369        1.0887061        1.0146791        1.0138515      -0.33570066E-02   0.25505781E-04
  7805.6140       0.88011441        1.0836352        1.0108566        1.0143773      -0.32114046E-02   0.15052495E-03
  7809.2040       0.86644690        1.0778398        1.0027718        1.0141647      -0.22748828E-02   0.43775958E-03
  7812.8090       0.86374662        1.0713535        1.0056776        1.0132845      -0.61724388E-04  -0.94505785E-04
  7816.3810       0.86600391        1.0643408        1.0134897        1.0118266      -0.29531508E-02  -0.49658873E-03
  7819.9940       0.84252824        1.0567289       0.99563253        1.0098332      -0.36297144E-02   0.85800576E-04
  7823.6050       0.83978285        1.0486744       0.99850256        1.0073941      -0.23333274E-02  -0.67998254E-04
  7827.2230       0.82566061        1.0402317       0.99000661        1.0045777      -0.41212738E-02   0.38949867E-04
  7830.8140       0.81007259        1.0315574       0.98000290        1.0014877      -0.20525378E-02   0.68076481E-03
  7834.4380       0.81085155        1.0225809       0.98641749       0.99814681       0.79044431E-03  -0.91932730E-04
  7838.0600       0.81580015        1.0134615       0.99699860       0.99465992      -0.27186824E-02  -0.37414206E-03
  7841.6900       0.79113567        1.0042495       0.97797908       0.99109292      -0.19228339E-02   0.78066634E-03
  7845.3200       0.80184037       0.99504114       0.99432874       0.98752948       0.29489553E-02   0.13420907E-02
