# XDI/1.0 Athena/0.9.26
# Element.edge:                  K
# Element.symbol:                Co
# Column.1:                      energy eV
# Column.2:                      norm
# Column.3:                      nbkg
# Column.4:                      flat
# Column.5:                      fbkg
# Column.6:                      nder
# Column.7:                      nsec
# Athena.e0:                     7721.54
# Athena.eshift:                 0
# Athena.rbkg:                   1.0
# Athena.importance:             1
# Athena.standard:               None
# Athena.bkg_kweight:            3
# Athena.edge_step:              1.1940444
# Athena.fixed_step:             no
# Athena.pre_edge_range:         -82.964 -19.904
# Athena.pre_edge_line:          -0.000389 + 0.00021468 * E
# Athena.normalization_range:    45 125.256
# Athena.post_edge_polynomial:   15.681774 - 0.00166165 * E + 0 * E^2 + 0 * E^3
# Athena.spline_range_energy:    0.000 125.180
# Athena.clamps:                 0 24
# Athena.spline_range_k:         0.000 5.732
# Athena.kweight:                2
# Athena.window:                 hanning
# Athena.phase_correction:       no
# Athena.k_range:                .4 5.35
# Athena.dk:                     .5
# Athena.r_range:                .4 5.1
# Athena.dr:                     .5
# Athena.window:                 hanning
# Athena.plot_multiplier:        1
# Athena.y_offset:               0.2
# ///
#------------------------
#   e         norm        nbkg        flat        fbkg        nder        nsec
  7600.0670      -0.21145898      -0.11458974E-01  -0.21145897      -0.21145897       0.12118423E-01  -0.50602697E-03
  7610.6410      -0.83318778E-01   0.11668123      -0.83318775E-01  -0.83318775E-01   0.67676937E-02  -0.37856662E-03
  7624.5560      -0.45724930E-01   0.15427507      -0.45724928E-01  -0.45724928E-01   0.28477048E-02  -0.20997307E-03
  7637.2000      -0.76865855E-02   0.19231341      -0.76865853E-02  -0.76865853E-02   0.11910189E-02  -0.12622868E-03
  7649.6990      -0.15779142E-01   0.18422086      -0.15779141E-01  -0.15779141E-01  -0.32606282E-03   0.10409385E-03
  7662.1990      -0.15837830E-01   0.18416217      -0.15837829E-01  -0.15837829E-01   0.37932611E-02   0.19906849E-04
  7674.7330       0.79181358E-01   0.27918135       0.79181355E-01   0.79181355E-01   0.17228525E-03  -0.28856970E-03
  7687.3310      -0.11507957E-01   0.18849204      -0.11507957E-01  -0.11507957E-01  -0.34590725E-02   0.86912839E-05
  7700.0100      -0.82536169E-02   0.19174638      -0.82536167E-02  -0.82536167E-02   0.39197483E-03   0.90734313E-03
  7700.3880      -0.63899416E-02   0.19361006      -0.63899413E-02  -0.63899413E-02   0.83881068E-02   0.63624987E-02
  7700.7190      -0.23064492E-02   0.19769355      -0.23064491E-02  -0.23064491E-02   0.49029864E-02  -0.20571202E-01
  7701.0710      -0.30412018E-02   0.19695880      -0.30412017E-02  -0.30412017E-02  -0.56620239E-02  -0.49001203E-02
  7701.4340      -0.63547962E-02   0.19364520      -0.63547960E-02  -0.63547960E-02   0.13994004E-02   0.14536598E-01
  7701.7980      -0.20238377E-02   0.19797616      -0.20238377E-02  -0.20238377E-02   0.49060827E-02  -0.76730716E-02
  7702.1550      -0.28175106E-02   0.19718249      -0.28175105E-02  -0.28175105E-02  -0.41328842E-02  -0.14038069E-01
  7702.5150      -0.49871157E-02   0.19501288      -0.49871155E-02  -0.49871155E-02  -0.51592127E-02   0.30630138E-02
  7702.8790      -0.65527806E-02   0.19344722      -0.65527804E-02  -0.65527804E-02  -0.19152622E-02   0.71824195E-02
  7703.2420      -0.63795113E-02   0.19362049      -0.63795111E-02  -0.63795111E-02   0.62406293E-04   0.58606826E-02
  7703.6000      -0.65077857E-02   0.19349221      -0.65077855E-02  -0.65077855E-02   0.23102900E-02   0.10571343E-01
  7703.9610      -0.47184128E-02   0.19528159      -0.47184126E-02  -0.47184126E-02   0.76632020E-02   0.48676514E-02
  7704.3250      -0.95196427E-03   0.19904804      -0.95196424E-03  -0.95196425E-03   0.58393373E-02  -0.12534601E-01
  7704.6870      -0.47905391E-03   0.19952095      -0.47905389E-03  -0.47905390E-03  -0.14369185E-02  -0.16815765E-01
  7705.0200      -0.19506226E-02   0.19804938      -0.19506226E-02  -0.19506226E-02  -0.58476191E-02   0.14981610E-02
  7705.3810      -0.45373015E-02   0.19546270      -0.45373014E-02  -0.45373014E-02  -0.39719475E-03   0.32331494E-01
  7705.7490      -0.22401776E-02   0.19775982      -0.22401775E-02  -0.22401775E-02   0.17722040E-01   0.35852980E-01
  7706.1120       0.84175096E-02   0.20841751       0.84175093E-02   0.84175093E-02   0.25811333E-01   0.14808580E-01
  7706.4710       0.16395605E-01   0.21639560       0.16395605E-01   0.16395605E-01   0.28413834E-01   0.10413289E-01
  7706.8310       0.28847057E-01   0.22884706       0.28847056E-01   0.28847056E-01   0.33298488E-01  -0.97119926E-03
  7707.1960       0.40537009E-01   0.24053701       0.40537008E-01   0.40537008E-01   0.27709715E-01  -0.22660750E-01
  7707.5570       0.48964310E-01   0.24896431       0.48964308E-01   0.48964308E-01   0.16846784E-01  -0.32540247E-01
  7707.9150       0.52649847E-01   0.25264984       0.52649845E-01   0.52649845E-01   0.43132771E-02  -0.21811400E-01
  7708.2800       0.52082809E-01   0.25208281       0.52082807E-01   0.52082807E-01   0.10771416E-02  -0.87580743E-02
  7708.6460       0.53437237E-01   0.25343724       0.53437235E-01   0.53437235E-01  -0.20888752E-02  -0.12411957E-01
  7708.9820       0.50616419E-01   0.25061642       0.50616417E-01   0.50616417E-01  -0.76360524E-02   0.86080714E-02
  7709.2900       0.48519619E-01   0.24851962       0.48519618E-01   0.48519618E-01   0.34547228E-02   0.23187860E-01
  7709.5960       0.52737618E-01   0.25273762       0.52737617E-01   0.52737617E-01   0.66012934E-02  -0.13822097E-01
  7709.9030       0.52566212E-01   0.25256621       0.52566210E-01   0.52566210E-01  -0.50182227E-02  -0.33380569E-01
  7710.2110       0.49651411E-01   0.24965141       0.49651410E-01   0.49651410E-01  -0.13927756E-01  -0.70160185E-02
  7710.5140       0.44056353E-01   0.24405635       0.44056352E-01   0.44056352E-01  -0.93050100E-02   0.22463579E-01
  7710.8230       0.43956745E-01   0.24395674       0.43956744E-01   0.43956744E-01  -0.18004583E-03   0.36084892E-01
  7711.1080       0.43949406E-01   0.24394940       0.43949404E-01   0.43949404E-01   0.12129416E-01   0.15522079E-01
  7711.4160       0.51149489E-01   0.25114949       0.51149487E-01   0.51149487E-01   0.90245469E-02  -0.23368731E-01
  7711.7250       0.49517551E-01   0.24951755       0.49517550E-01   0.49517550E-01  -0.22890915E-02  -0.15859344E-01
  7712.0290       0.49746276E-01   0.24974627       0.49746274E-01   0.49746274E-01  -0.69723128E-03  -0.11164454E-01
  7712.3330       0.49093635E-01   0.24909363       0.49093633E-01   0.49093633E-01  -0.90770797E-02   0.98229542E-02
  7712.6440       0.44163872E-01   0.24416387       0.44163870E-01   0.44163870E-01   0.53438856E-02   0.49360496E-01
  7712.9530       0.52406844E-01   0.25240684       0.52406842E-01   0.52406842E-01   0.21526428E-01   0.33797670E-01
  7713.2350       0.56885991E-01   0.25688599       0.56885989E-01   0.56885989E-01   0.25318309E-01   0.42205472E-01
  7713.5380       0.67218054E-01   0.26721805       0.67218052E-01   0.67218052E-01   0.46216629E-01   0.65742034E-01
  7713.8530       0.85447868E-01   0.28544786       0.85447865E-01   0.85447865E-01   0.65946885E-01   0.45064608E-01
  7714.1610       0.10830296       0.30830296       0.10830296       0.10830296       0.74291880E-01   0.39058134E-02
  7714.4700       0.13128596       0.33128595       0.13128595       0.13128595       0.68356772E-01  -0.38668760E-01
  7714.7770       0.15041074       0.35041073       0.15041073       0.15041073       0.50471924E-01  -0.50101834E-01
  7715.0770       0.16192242       0.36192241       0.16192241       0.16192241       0.37944959E-01  -0.73950925E-02
  7715.3860       0.17351922       0.37351921       0.17351921       0.17351921       0.45968312E-01   0.11308204E-01
  7715.6700       0.18918162       0.38918162       0.18918162       0.18918162       0.44650724E-01  -0.26315634E-01
  7715.9720       0.19968454       0.39968453       0.19968453       0.19968453       0.30547351E-01  -0.54850566E-01
  7716.1370       0.20344724       0.40344723       0.20344723       0.20344723       0.19035509E-01   0.15279763E-01
  7716.2550       0.20507159       0.40507158       0.20507158       0.20507158       0.34871524E-01   0.15741814
  7716.3670       0.21146769       0.41146768       0.21146768       0.21146768       0.55241680E-01   0.12051452
  7716.4990       0.21855056       0.41855055       0.21855055       0.21855055       0.64277066E-01   0.40706953E-01
  7716.6200       0.22772979       0.42772978       0.22772978       0.22772978       0.65540540E-01  -0.37131844E-01
  7716.7330       0.23388704       0.43388704       0.23388704       0.23388704       0.55588214E-01  -0.46457620E-01
  7716.8670       0.24146007       0.44146007       0.24146007       0.24146007       0.54065508E-01  -0.29769933E-01
  7716.9880       0.24767375       0.44767374       0.24767374       0.24767374       0.47996882E-01  -0.50615721E-01
  7717.1010       0.25269134       0.45269134       0.25269134       0.25269134       0.42221429E-01  -0.16616994E-01
  7717.2330       0.25801800       0.45801799       0.25801799       0.25801799       0.43925718E-01   0.17562146
  7717.3500       0.26362885       0.46362884       0.26362884       0.26362884       0.85951172E-01   0.15387213
  7717.4620       0.27770082       0.47770081       0.27770081       0.27770081       0.79162436E-01  -0.18591727
  7717.5920       0.28278616       0.48278615       0.28278615       0.28278615       0.40959194E-01   0.49517327E-01
  7717.7100       0.28785870       0.48785869       0.28785869       0.28785869       0.91442734E-01   0.27518115
  7717.8420       0.30564684       0.50564683       0.30564683       0.30564683       0.10975448      -0.10233773
  7717.9600       0.31529732       0.51529731       0.31529731       0.31529731       0.65858302E-01  -0.43754623E-01
  7718.0740       0.32092597       0.52092596       0.32092596       0.32092596       0.99603410E-01   0.25476392
  7718.2060       0.33979976       0.53979975       0.33979975       0.33979975       0.12853023      -0.61123831E-01
  7718.3280       0.35357264       0.55357263       0.35357263       0.35357263       0.84077956E-01  -0.27078174
  7718.4410       0.35955808       0.55955807       0.35955807       0.35955807       0.64896517E-01   0.83119940E-02
  7718.5730       0.36947229       0.56947228       0.36947228       0.36947228       0.86114395E-01   0.12116474
  7718.6930       0.38125890       0.58125889       0.38125889       0.38125889       0.95430032E-01   0.10975285
  7718.8050       0.39161206       0.59161205       0.39161205       0.39161205       0.11157706       0.13638501
  7718.9360       0.40837213       0.60837212       0.40837212       0.40837212       0.12857159       0.17683860
  7719.0560       0.42388353       0.62388351       0.42388351       0.42388351       0.15596354       0.96515575E-02
  7719.1680       0.44455567       0.64455566       0.44455566       0.44455566       0.13081075      -0.20374927
  7719.2990       0.45567054       0.65567053       0.45567053       0.45567053       0.10645247       0.18456165
  7719.4200       0.47138169       0.67138168       0.47138168       0.47138168       0.17732029       0.20328101
  7719.5350       0.49751813       0.69751811       0.49751811       0.49751811       0.15442679      -0.24596874
  7719.6660       0.50937068       0.70937067       0.50937067       0.50937067       0.11681197       0.80095302E-01
  7719.7880       0.52707156       0.72707154       0.52707154       0.52707154       0.17469090       0.29370531
  7719.9010       0.55042304       0.75042303       0.55042303       0.55042303       0.18583272      -0.14164320E-01
  7720.0340       0.57278641       0.77278639       0.57278639       0.57278639       0.17120648       0.12362431
  7720.1540       0.59373828       0.79373826       0.59373826       0.59373826       0.21710967       0.12056735
  7720.2670       0.62337296       0.82337294       0.62337294       0.62337294       0.19929867      -0.27127202
  7720.3970       0.64216786       0.84216784       0.64216784       0.64216784       0.15119057      -0.14120279
  7720.5160       0.66101941       0.86101939       0.66101939       0.66101939       0.16413918       0.10137242
  7720.6460       0.68303851       0.88303849       0.68303849       0.68303849       0.17643231       0.26496275
  7720.7660       0.70512749       0.90512747       0.70512747       0.70512747       0.23037986       0.21759482
  7720.8790       0.73671702       0.93671700       0.73671700       0.73671700       0.22713190      -0.16923370
  7721.0130       0.76122907       0.96122904       0.76122904       0.76122904       0.18857914      -0.11620941
  7721.1330       0.78461612       0.98461610       0.78461610       0.78461610       0.19761471       0.21858082E-01
  7721.2460       0.80727330        1.0072733       0.80727327       0.80727327       0.19367207       0.73430026E-01
  7721.3790       0.83225945        1.0322594       0.83225942       0.83225942       0.21567849       0.27572452
  7721.5000       0.86205563        1.0620556       0.86199278       0.86199278       0.26370610       0.10800990
  7721.6120       0.89370297        2.2438937       0.89381612        2.0440068       0.24084480      -0.19182148
  7721.7440       0.92082177        2.2267105       0.92114233        2.0270311       0.21690166       0.18368508E-01
  7721.8620       0.94792839        2.2114841       0.94843438        2.0119901       0.24543693      -0.94250120E-01
  7721.9740       0.97727226        2.1971486       0.97795425        1.9978306       0.19522413      -0.39103993
  7722.1040       0.99517263        2.1806511       0.99605890        1.9815374       0.15080527       0.83048797E-02
  7722.2260        1.0152752        2.1653071        1.0163532        1.9663851       0.19731696       0.22200892
  7722.3580        1.0452911        2.1488554        1.0465765        1.9501408       0.20719553      -0.51624226E-01
  7722.4790        1.0676957        2.1339110        1.0691712        1.9353866       0.18425603      -0.30196395
  7722.5930        1.0885913        2.1199501        1.0902460        1.9216048       0.13623400      -0.37640701
  7722.7240        1.1010730        2.1040490        1.1029335        1.9059095       0.92036312E-01  -0.69721426E-01
  7722.8460        1.1118765        2.0893761        1.1139287        1.8914284       0.11859448       0.29024121
  7722.9580        1.1288241        2.0760207        1.1310523        1.8782490       0.15995276       0.16545984
  7723.0510        1.1446668        2.0650141        1.1470412        1.8673885       0.15251375      -0.18729543
  7723.2130        1.1677151        2.0460208        1.1703441        1.8486498       0.11219242      -0.14141375
  7723.4060        1.1844951        2.0236889        1.1874273        1.8266212       0.10231187       0.10174477E-01
  7723.6030        1.2076167        2.0012240        1.2108585        1.8044658       0.11616047      -0.17007745E-01
  7723.8000        1.2302623        1.9790899        1.2338137        1.7826413       0.95610817E-01  -0.14191734
  7724.0000        1.2455742        1.9569546        1.2494399        1.7608203       0.59819283E-01  -0.18026373
  7724.1980        1.2540704        1.9353717        1.2582472        1.7395485       0.23865852E-01  -0.14563513
  7724.3960        1.2550251        1.9141157        1.2595130        1.7186037       0.21477707E-02  -0.50919282E-01
  7724.5920        1.2549166        1.8933941        1.2597125        1.6981900       0.38036548E-02  -0.95557825E-02
  7724.7890        1.2565199        1.8728847        1.2616254        1.6779903      -0.16076518E-02  -0.82254063E-01
  7725.0080        1.2542479        1.8504565        1.2596975        1.6559061      -0.30414035E-01  -0.39527568E-01
  7725.7230        1.2281132        1.7799152        1.2346864        1.5864884      -0.38526401E-01  -0.69774066E-02
  7726.5070        1.1964968        1.7071847        1.2043019        1.5149899      -0.40873168E-01   0.65370731E-03
  7727.3020        1.1635745        1.6382178        1.1726289        1.4472722      -0.37494197E-01   0.22978824E-02
  7728.0660        1.1380433        1.5763354        1.1482983        1.3865904      -0.37290769E-01   0.61048349E-02
  7728.8300        1.1065942        1.5186207        1.1180497        1.3300763      -0.28166009E-01   0.18546832E-01
  7729.5930        1.0950338        1.4650033        1.1076883        1.2776578      -0.89697564E-02   0.15018903E-01
  7730.3530        1.0929333        1.4154553        1.1067820        1.2293041      -0.52922201E-02   0.33578091E-02
  7731.1470        1.0868097        1.3676565        1.1019062        1.1827530      -0.37517211E-02   0.52574443E-02
  7731.9100        1.0870918        1.3253998        1.1033873        1.1416953       0.28936207E-02  -0.27851643E-02
  7732.6790        1.0912427        1.2863148        1.1087466        1.1038187      -0.80185929E-02  -0.77747282E-02
  7733.4410        1.0748154        1.2509170        1.0935166        1.0696183      -0.90094882E-02   0.50308319E-02
  7734.2140        1.0774132        1.2182556        1.0973291        1.0381716      -0.29626588E-03  -0.21200618E-02
  7734.9760        1.0743606        1.1891211        1.0954740        1.0102345      -0.12263783E-01  -0.10217668E-01
  7735.7750        1.0582694        1.1616870        1.0806383       0.98405599      -0.16246046E-01   0.80620752E-02
  7736.5390        1.0489680        1.1382936        1.0725375       0.96186313       0.33724054E-03   0.79836536E-02
  7737.3090        1.0587867        1.1173823        1.0835662       0.94216180      -0.39991211E-02  -0.14034057E-01
  7738.0780        1.0428134        1.0990284        1.0688012       0.92501632      -0.21261173E-01  -0.86771437E-02
  7738.8440        1.0261508        1.0831200        1.0533424       0.91031159      -0.17318537E-01   0.64941402E-02
  7739.6160        1.0161775        1.0693426        1.0445822       0.89774732      -0.11273185E-01   0.17147782E-02
  7740.3880        1.0087450        1.0576874        1.0383628       0.88730528      -0.14670919E-01  -0.59999690E-02
  7741.1610       0.99351090        1.0480006        1.0243434       0.87883315      -0.20543138E-01  -0.63527999E-02
  7741.9520       0.97661558        1.0399935        1.0086911       0.87206904      -0.24606698E-01  -0.39735878E-03
  7744.4520       0.91253026        1.0256309       0.94853425       0.86163493      -0.21850845E-01   0.17528855E-02
  7746.9690       0.86698988        1.0241800       0.90694910       0.86413924      -0.15812472E-01   0.18761391E-02
  7749.4530       0.83345209        1.0307331       0.87731467       0.87459572      -0.12468274E-01   0.11152872E-02
  7751.9350       0.80507244        1.0404420       0.85283524       0.88820483      -0.10273955E-01   0.10808814E-02
  7754.4550       0.78206176        1.0498759       0.83378450       0.90159867      -0.70617052E-02   0.18886653E-02
  7756.9490       0.76966505        1.0583102       0.82530686       0.91395205      -0.80418742E-03   0.24933180E-02
  7759.4300       0.77806093        1.0658367       0.83760140       0.92537718       0.53425518E-02   0.17005305E-02
  7761.9470       0.79636712        1.0726192       0.85986281       0.93611490       0.76950642E-02   0.11396656E-02
  7764.4680       0.81682867        1.0785786       0.88428586       0.94603587       0.11084187E-01   0.57995948E-03
  7766.9650       0.85198757        1.0836861       0.92336856       0.95506709       0.10605301E-01  -0.58159726E-04
  7769.4620       0.86979154        1.0880291       0.94509632       0.96333390       0.10793738E-01   0.62511619E-04
  7771.9870       0.90619372        1.0916710       0.98546630       0.97094363       0.10919234E-01  -0.11727003E-02
  7774.4880       0.92467161        1.0945624        1.0078743       0.97776512       0.48997459E-02  -0.17898743E-02
  7776.9970       0.93074145        1.0967746        1.0178868       0.98391990       0.19519643E-02  -0.62820583E-03
  7780.5620       0.93652784        1.0987853        1.0292752       0.99153266       0.10840237E-02  -0.84917519E-03
  7784.1490       0.93849439        1.0995383        1.0368784       0.99792235      -0.41213367E-02  -0.62098696E-03
  7787.6930       0.90713859        1.0991094        1.0110916        1.0030624      -0.33442344E-02   0.70267653E-03
  7791.2820       0.91463996        1.0975660        1.0242328        1.0071588       0.89085499E-03   0.25200317E-03
  7794.8620       0.91352513        1.0949942        1.0287435        1.0102126      -0.15376236E-02  -0.65915014E-03
  7798.4360       0.90363980        1.0914777        1.0244744        1.0123123      -0.38247051E-02  -0.25569876E-03
  7802.0150       0.88616701        1.0870854        1.0126257        1.0135441      -0.33666368E-02   0.10486830E-03
  7805.6140       0.87947409        1.0818701        1.0115882        1.0139842      -0.30719605E-02   0.10435823E-03
  7809.2040       0.86408269        1.0759504        1.0018382        1.0137059      -0.26164055E-02   0.43159293E-03
  7812.8090       0.86064905        1.0693659        1.0040694        1.0127863       0.33350689E-04   0.85960716E-05
  7816.3810       0.86432205        1.0622888        1.0133555        1.0113223      -0.25547115E-02  -0.51249673E-03
  7819.9940       0.84229345        1.0546516       0.99700437        1.0093625      -0.36489383E-02   0.17865291E-04
  7823.6050       0.83796212        1.0466187       0.99834737        1.0070040      -0.24256527E-02  -0.96075428E-04
  7827.2230       0.82475840        1.0382513       0.99082900        1.0043219      -0.43434676E-02   0.44419345E-04
  7830.8140       0.80665006        1.0297116       0.97836356        1.0014251      -0.21054336E-02   0.73829849E-03
  7834.4380       0.80956770        1.0209381       0.98697597       0.99834640       0.98335603E-03  -0.92136100E-04
  7838.0600       0.81377546        1.0120958       0.99687535       0.99519572      -0.27730518E-02  -0.37882967E-03
  7841.6900       0.78945753        1.0032428       0.97826161       0.99204694      -0.17639167E-02   0.81878411E-03
  7845.3200       0.80096942       0.99448160       0.99547770       0.98898990       0.31713208E-02   0.13595696E-02
