# XDI/1.0 Athena/0.9.26
# Element.edge:                  K
# Element.symbol:                Co
# Column.1:                      energy eV
# Column.2:                      norm
# Column.3:                      nbkg
# Column.4:                      flat
# Column.5:                      fbkg
# Column.6:                      nder
# Column.7:                      nsec
# Athena.e0:                     7721.54
# Athena.eshift:                 0
# Athena.rbkg:                   1.0
# Athena.importance:             1
# Athena.standard:               None
# Athena.bkg_kweight:            3
# Athena.edge_step:              1.1934064
# Athena.fixed_step:             no
# Athena.pre_edge_range:         -82.964 -19.904
# Athena.pre_edge_line:          -0.015496 + 0.00021668 * E
# Athena.normalization_range:    45 125.256
# Athena.post_edge_polynomial:   15.626675 - 0.00165455 * E + 0 * E^2 + 0 * E^3
# Athena.spline_range_energy:    0.000 125.180
# Athena.clamps:                 0 24
# Athena.spline_range_k:         0.000 5.732
# Athena.kweight:                2
# Athena.window:                 hanning
# Athena.phase_correction:       no
# Athena.k_range:                .4 5.35
# Athena.dk:                     .5
# Athena.r_range:                .4 5.1
# Athena.dr:                     .5
# Athena.window:                 hanning
# Athena.plot_multiplier:        1
# Athena.y_offset:               0.2
# ///
#------------------------
#   e         norm        nbkg        flat        fbkg        nder        nsec
  7600.0670      -0.21211049      -0.12110485E-01  -0.21211048      -0.21211048       0.12132183E-01  -0.50271153E-03
  7610.6410      -0.83824782E-01   0.11617522      -0.83824780E-01  -0.83824780E-01   0.68165116E-02  -0.37867405E-03
  7624.5560      -0.45180936E-01   0.15481906      -0.45180936E-01  -0.45180936E-01   0.28588345E-02  -0.21261311E-03
  7637.2000      -0.78969962E-02   0.19210300      -0.78969961E-02  -0.78969961E-02   0.11697200E-02  -0.12665196E-03
  7649.6990      -0.15770667E-01   0.18422933      -0.15770667E-01  -0.15770667E-01  -0.32557572E-03   0.10621457E-03
  7662.1990      -0.16036064E-01   0.18396394      -0.16036063E-01  -0.16036063E-01   0.38249780E-02   0.20291739E-04
  7674.7330       0.79983833E-01   0.27998383       0.79983832E-01   0.79983832E-01   0.18240767E-03  -0.29357920E-03
  7687.3310      -0.11451794E-01   0.18854821      -0.11451794E-01  -0.11451794E-01  -0.35532543E-02   0.10191663E-04
  7700.0100      -0.98317772E-02   0.19016822      -0.98317771E-02  -0.98317771E-02   0.44002234E-03   0.11165951E-02
  7700.3880      -0.57064224E-02   0.19429358      -0.57064223E-02  -0.57064223E-02   0.11026128E-01   0.50980255E-02
  7700.7190      -0.20142528E-02   0.19798575      -0.20142528E-02  -0.20142527E-02   0.40545224E-02  -0.25391804E-01
  7701.0710      -0.29371836E-02   0.19706282      -0.29371836E-02  -0.29371835E-02  -0.63164745E-02  -0.34986158E-02
  7701.4340      -0.65305321E-02   0.19346947      -0.65305320E-02  -0.65305320E-02   0.15530121E-02   0.16940047E-01
  7701.7980      -0.18081438E-02   0.19819186      -0.18081438E-02  -0.18081438E-02   0.59989394E-02  -0.67157761E-02
  7702.1550      -0.22052968E-02   0.19779470      -0.22052968E-02  -0.22052968E-02  -0.32890625E-02  -0.16934290E-01
  7702.5150      -0.41664016E-02   0.19583360      -0.41664015E-02  -0.41664015E-02  -0.61429463E-02   0.15328429E-03
  7702.8790      -0.66527899E-02   0.19334721      -0.66527898E-02  -0.66527898E-02  -0.31780846E-02   0.86211599E-02
  7703.2420      -0.64768691E-02   0.19352313      -0.64768690E-02  -0.64768690E-02   0.12463697E-03   0.65402274E-02
  7703.6000      -0.65629266E-02   0.19343707      -0.65629265E-02  -0.65629265E-02   0.15374193E-02   0.10928590E-01
  7703.9610      -0.53714646E-02   0.19462854      -0.53714646E-02  -0.53714646E-02   0.79822931E-02   0.46677743E-02
  7704.3250      -0.77576414E-03   0.19922424      -0.77576413E-03  -0.77576413E-03   0.49215557E-02  -0.14489502E-01
  7704.6870      -0.17984152E-02   0.19820158      -0.17984152E-02  -0.17984152E-02  -0.25370855E-02  -0.11560138E-01
  7705.0200      -0.25390385E-02   0.19746096      -0.25390385E-02  -0.25390385E-02  -0.31127402E-02   0.50847676E-02
  7705.3810      -0.39586569E-02   0.19604134      -0.39586569E-02  -0.39586569E-02   0.99174326E-03   0.27053812E-01
  7705.7490      -0.18160577E-02   0.19818394      -0.18160577E-02  -0.18160577E-02   0.16609488E-01   0.32380359E-01
  7706.1120       0.81828791E-02   0.20818288       0.81828790E-02   0.81828790E-02   0.24661786E-01   0.19797033E-01
  7706.4710       0.15989752E-01   0.21598975       0.15989752E-01   0.15989752E-01   0.30902946E-01   0.11117544E-01
  7706.8310       0.30402097E-01   0.23040210       0.30402097E-01   0.30402097E-01   0.32655300E-01  -0.70207738E-02
  7707.1960       0.39664844E-01   0.23966484       0.39664844E-01   0.39664844E-01   0.25812885E-01  -0.20947417E-01
  7707.5570       0.49142252E-01   0.24914225       0.49142251E-01   0.49142251E-01   0.17447476E-01  -0.31347391E-01
  7707.9150       0.52209579E-01   0.25220958       0.52209579E-01   0.52209579E-01   0.32741106E-02  -0.23868921E-01
  7708.2800       0.51509434E-01   0.25150943       0.51509433E-01   0.51509433E-01   0.19024573E-03  -0.53844012E-02
  7708.6460       0.52348649E-01   0.25234865       0.52348648E-01   0.52348648E-01  -0.66188672E-03  -0.11194680E-01
  7708.9820       0.51044789E-01   0.25104479       0.51044788E-01   0.51044788E-01  -0.76684195E-02  -0.24160891E-03
  7709.2900       0.47410187E-01   0.24741019       0.47410186E-01   0.47410186E-01  -0.81748286E-03   0.25597743E-01
  7709.5960       0.50542855E-01   0.25054285       0.50542854E-01   0.50542854E-01   0.80485949E-02  -0.15929717E-02
  7709.9030       0.52343976E-01   0.25234397       0.52343975E-01   0.52343975E-01  -0.17939745E-02  -0.35898032E-01
  7710.2110       0.49439560E-01   0.24943956       0.49439560E-01   0.49439560E-01  -0.14028695E-01  -0.97142975E-02
  7710.5140       0.43772443E-01   0.24377244       0.43772442E-01   0.43772442E-01  -0.77294103E-02   0.25523503E-01
  7710.8230       0.44709161E-01   0.24470916       0.44709161E-01   0.44709161E-01   0.15916889E-02   0.33089625E-01
  7711.1080       0.44717906E-01   0.24471791       0.44717905E-01   0.44717905E-01   0.11925827E-01   0.92150138E-02
  7711.4160       0.51781177E-01   0.25178118       0.51781176E-01   0.51781176E-01   0.70561921E-02  -0.24432988E-01
  7711.7250       0.49071577E-01   0.24907158       0.49071576E-01   0.49071576E-01  -0.31493262E-02  -0.99806164E-02
  7712.0290       0.49850640E-01   0.24985064       0.49850639E-01   0.49850639E-01   0.93807421E-03  -0.47287637E-02
  7712.3330       0.49641926E-01   0.24964192       0.49641925E-01   0.49641925E-01  -0.60244146E-02   0.11580736E-01
  7712.6440       0.46145625E-01   0.24614562       0.46145624E-01   0.46145624E-01   0.80602267E-02   0.43035784E-01
  7712.9530       0.54639266E-01   0.25463927       0.54639265E-01   0.54639265E-01   0.20657772E-01   0.32457263E-01
  7713.2350       0.58354368E-01   0.25835437       0.58354367E-01   0.58354367E-01   0.27242469E-01   0.40772199E-01
  7713.5380       0.70576111E-01   0.27057611       0.70576110E-01   0.70576110E-01   0.44509508E-01   0.58237491E-01
  7713.8530       0.85861244E-01   0.28586124       0.85861243E-01   0.85861243E-01   0.63233238E-01   0.53434885E-01
  7714.1610       0.10997042       0.30997042       0.10997042       0.10997042       0.77799442E-01   0.10434132E-01
  7714.4700       0.13386350       0.33386350       0.13386350       0.13386350       0.69671098E-01  -0.41451118E-01
  7714.7770       0.15288781       0.35288781       0.15288781       0.15288781       0.52265553E-01  -0.51618473E-01
  7715.0770       0.16558869       0.36558869       0.16558869       0.16558869       0.38338685E-01  -0.98579477E-02
  7715.3860       0.17623607       0.37623607       0.17623607       0.17623607       0.46262063E-01   0.18600650E-01
  7715.6700       0.19302209       0.39302209       0.19302209       0.19302209       0.49368870E-01  -0.21424934E-01
  7715.9720       0.20516623       0.40516623       0.20516623       0.20516623       0.33707051E-01  -0.76747275E-01
  7716.1370       0.20876329       0.40876328       0.20876328       0.20876328       0.13527893E-01  -0.10460572E-01
  7716.2550       0.20899463       0.40899462       0.20899462       0.20899462       0.30746710E-01   0.20314695
  7716.3670       0.21583503       0.41583503       0.21583503       0.21583503       0.60251692E-01   0.12307129
  7716.4990       0.22369604       0.42369604       0.22369604       0.22369604       0.60776106E-01   0.28353381E-01
  7716.6200       0.23121138       0.43121138       0.23121138       0.23121138       0.67425098E-01  -0.36242290E-01
  7716.7330       0.23947351       0.43947351       0.23947351       0.23947351       0.52295410E-01  -0.63428175E-01
  7716.8670       0.24412835       0.44412835       0.24412835       0.24412835       0.51758338E-01  -0.30142403E-01
  7716.9880       0.25267189       0.45267188       0.25267188       0.25267188       0.44609097E-01  -0.10341017
  7717.1010       0.25456688       0.45456688       0.25456688       0.25456688       0.27560358E-01   0.69786620E-01
  7717.2330       0.25942418       0.45942417       0.25942417       0.25942417       0.61706819E-01   0.30146116
  7717.3500       0.26993188       0.46993187       0.26993187       0.26993187       0.10262419       0.61605592E-02
  7717.4620       0.28292511       0.48292511       0.28292511       0.28292511       0.63117587E-01  -0.22746706
  7717.5920       0.28520633       0.48520633       0.28520633       0.28520633       0.47577158E-01   0.14257665
  7717.7100       0.29472425       0.49472424       0.29472424       0.29472424       0.98476597E-01   0.17610000
  7717.8420       0.30982548       0.50982548       0.30982548       0.30982548       0.91602158E-01  -0.98126284E-01
  7717.9600       0.31762479       0.51762478       0.31762478       0.31762478       0.73945026E-01   0.10797183
  7718.0740       0.32698073       0.52698072       0.32698072       0.32698072       0.11665162       0.19420723
  7718.2060       0.34632109       0.54632108       0.34632108       0.34632108       0.12172000      -0.19480771
  7718.3280       0.35789761       0.55789760       0.35789760       0.35789760       0.67170464E-01  -0.19455355
  7718.4410       0.36210615       0.56210614       0.36210614       0.36210614       0.75999919E-01   0.16967744
  7718.5730       0.37651759       0.57651758       0.37651758       0.37651758       0.10874144       0.61883044E-01
  7718.6930       0.38950899       0.58950898       0.38950898       0.38950898       0.91594447E-01  -0.62386116E-01
  7718.8050       0.39776750       0.59776750       0.39776750       0.39776750       0.94267858E-01   0.20968310
  7718.9360       0.41241608       0.61241607       0.41241607       0.41241607       0.14254744       0.32013830
  7719.0560       0.43354691       0.63354690       0.43354690       0.43354690       0.17462257      -0.69087194E-01
  7719.1680       0.45292851       0.65292851       0.45292851       0.45292851       0.12651921      -0.28845800
  7719.2990       0.46429108       0.66429107       0.46429107       0.46429107       0.10452728       0.11323060
  7719.4200       0.47926939       0.67926938       0.47926938       0.47926938       0.15505332       0.17854208
  7719.5350       0.50088366       0.70088365       0.50088365       0.50088365       0.14666321      -0.80600645E-01
  7719.6660       0.51534854       0.71534853       0.51534853       0.51534853       0.13522556       0.13483727
  7719.7880       0.53509573       0.73509572       0.53509572       0.53509572       0.18077704       0.23532072
  7719.9010       0.55783114       0.75783113       0.55783113       0.55783113       0.19052593      -0.35162312E-01
  7720.0340       0.58196511       0.78196510       0.58196510       0.58196510       0.17212711       0.99723082E-01
  7720.1540       0.60137930       0.80137929       0.60137929       0.60137929       0.21575587       0.67995239E-01
  7720.2670       0.63223623       0.83223622       0.63223622       0.63223622       0.18797000      -0.30044795
  7720.3970       0.64705601       0.84705600       0.64705600       0.64705600       0.14274702      -0.87119604E-01
  7720.5160       0.66778024       0.86778023       0.66778023       0.66778023       0.16627722       0.15901144
  7720.6460       0.68845904       0.88845902       0.68845902       0.68845902       0.18234087       0.31966630
  7720.7660       0.71336545       0.91336544       0.71336544       0.71336544       0.24619379       0.13058568
  7720.8790       0.74582219       0.94582218       0.74582218       0.74582218       0.21276733      -0.23817023
  7721.0130       0.76591898       0.96591897       0.76591897       0.76591897       0.18736575      -0.19539312E-01
  7721.1330       0.79341309       0.99341308       0.79341308       0.79341308       0.20780435       0.20678881E-01
  7721.2460       0.81433740        1.0143374       0.81433739       0.81433739       0.19218393       0.46087824E-01
  7721.3790       0.84069033        1.0406903       0.84069032       0.84069032       0.21914195       0.25378643
  7721.5000       0.86999945        1.0699994       0.86993674       0.86993674       0.25664568      -0.93272230E-02
  7721.6120       0.90048878        2.2288262       0.90060167        2.0289392       0.21696871      -0.15898254
  7721.7440       0.92293982        2.2119025       0.92325969        2.0122224       0.21785394       0.19110775
  7721.8620       0.95495226        2.1969058       0.95545715        1.9974107       0.26474565      -0.79328572E-01
  7721.9740       0.98383132        2.1827865       0.98451182        1.9834670       0.19960837      -0.54243372
  7722.1040        1.0032575        2.1665376        1.0041418        1.9674220       0.13347669      -0.39426932E-01
  7722.2260        1.0174674        2.1514247        1.0185431        1.9525003       0.18967278       0.29696478
  7722.3580        1.0514344        2.1352206        1.0527170        1.9365032       0.20890574      -0.12969316
  7722.4790        1.0703206        2.1205009        1.0717929        1.9219733       0.15686041      -0.28955309
  7722.5930        1.0882966        2.1067498        1.0899476        1.9084009       0.14086076      -0.22614524
  7722.7240        1.1048315        2.0910875        1.1066880        1.8929440       0.10145483      -0.13154355
  7722.8460        1.1139646        2.0766349        1.1160124        1.8786826       0.10758025       0.18289570
  7722.9580        1.1300053        2.0634798        1.1322286        1.8657032       0.14425242       0.17749310
  7723.0510        1.1435364        2.0526381        1.1459056        1.8550074       0.14396633      -0.11582741
  7723.2130        1.1667167        2.0339293        1.1693399        1.8365525       0.11471643      -0.11290058
  7723.4060        1.1842607        2.0119316        1.1871866        1.8148574       0.10388662      -0.66567664E-02
  7723.6030        1.2072325        1.9898024        1.2104672        1.7930371       0.11212029      -0.28500255E-01
  7723.8000        1.2284361        1.9679987        1.2319797        1.7715423       0.92657524E-01  -0.13578043
  7724.0000        1.2440175        1.9461934        1.2478747        1.7500506       0.58215460E-01  -0.17711200
  7724.1980        1.2516059        1.9249318        1.2557735        1.7290995       0.22166949E-01  -0.13286751
  7724.3960        1.2527956        1.9039919        1.2572737        1.7084700       0.55999278E-02  -0.31235430E-01
  7724.5920        1.2538122        1.8835779        1.2585977        1.6883634       0.98601892E-02  -0.38761185E-01
  7724.7890        1.2566707        1.8633728        1.2617650        1.6684671      -0.96332181E-02  -0.10134660
  7725.0080        1.2498048        1.8412766        1.2552425        1.6467144      -0.32299997E-01  -0.29167215E-01
  7725.7230        1.2265025        1.7717765        1.2330613        1.5783353      -0.36875397E-01  -0.62553254E-02
  7726.5070        1.1945286        1.7001130        1.2023167        1.5079012      -0.41676730E-01   0.36457999E-03
  7727.3020        1.1606949        1.6321514        1.1697296        1.4411860      -0.36299725E-01   0.43999817E-02
  7728.0660        1.1379373        1.5711644        1.1481699        1.3813970      -0.34817159E-01   0.59674945E-02
  7728.8300        1.1074943        1.5142783        1.1189248        1.3257088      -0.27181394E-01   0.15281902E-01
  7729.5930        1.0964313        1.4614239        1.1090582        1.2740508      -0.11481694E-01   0.13976845E-01
  7730.3530        1.0900077        1.4125744        1.1038262        1.2263930      -0.58946595E-02   0.49464745E-02
  7731.1470        1.0872710        1.3654420        1.1023345        1.1805055      -0.37948730E-02   0.47845892E-02
  7731.9100        1.0840991        1.3237672        1.1003589        1.1400271       0.15549460E-02  -0.24034566E-02
  7732.6790        1.0896532        1.2852130        1.1071189        1.1026787      -0.74769685E-02  -0.66626985E-02
  7733.4410        1.0726518        1.2502885        1.0913123        1.0689490      -0.86456454E-02   0.46804320E-02
  7734.2140        1.0763821        1.2180557        1.0962546        1.0379282      -0.29250544E-03  -0.21154534E-02
  7734.9760        1.0722028        1.1892957        1.0932701        1.0103630      -0.11892866E-01  -0.91552156E-02
  7735.7750        1.0578174        1.1622052        1.0801375       0.98452529      -0.14583797E-01   0.78889021E-02
  7736.5390        1.0494083        1.1390959        1.0729264       0.96261393       0.43748761E-03   0.66118800E-02
  7737.3090        1.0584885        1.1184294        1.0832138       0.94315476      -0.44411730E-02  -0.14539307E-01
  7738.0780        1.0425734        1.1002807        1.0685045       0.92621184      -0.21938506E-01  -0.85810249E-02
  7738.8440        1.0248129        1.0845400        1.0519451       0.91167220      -0.17613046E-01   0.78159261E-02
  7739.6160        1.0154845        1.0708970        1.0438272       0.89923967      -0.99176119E-02   0.16073220E-02
  7740.3880        1.0095001        1.0593438        1.0390532       0.88889696      -0.15131341E-01  -0.77612435E-02
  7741.1610       0.99210659        1.0497290        1.0228718       0.88049421      -0.21908733E-01  -0.56068241E-02
  7741.9520       0.97523483        1.0417670        1.0072403       0.87377248      -0.23900414E-01   0.13824648E-03
  7744.4520       0.91345033        1.0273855       0.94937571       0.86331089      -0.21453764E-01   0.16290075E-02
  7746.9690       0.86760130        1.0257314       0.90747327       0.86560340      -0.15727684E-01   0.18754935E-02
  7749.4530       0.83479618        1.0319838       0.87856300       0.87575058      -0.12074421E-01   0.10398574E-02
  7751.9350       0.80763972        1.0413726       0.85529825       0.88903114      -0.10563751E-01   0.94354315E-03
  7754.4550       0.78195630        1.0505224       0.83356611       0.90213224      -0.73548180E-02   0.19868356E-02
  7756.9490       0.77076267        1.0587219       0.82628301       0.91424228      -0.60175794E-03   0.25654226E-02
  7759.4300       0.77896255        1.0660577       0.83837303       0.92546821       0.54081593E-02   0.16878809E-02
  7761.9470       0.79779265        1.0726874       0.86114971       0.93604452       0.78342708E-02   0.11188644E-02
  7764.4680       0.81843161        1.0785320       0.88574153       0.94584193       0.11044998E-01   0.50063407E-03
  7766.9650       0.85321645        1.0835602       0.92444160       0.95478536       0.10346453E-01  -0.83336514E-04
  7769.4620       0.87010179        1.0878554       0.94524217       0.96299584       0.10628816E-01   0.12902171E-03
  7771.9870       0.90659436        1.0914781       0.98569387       0.97057761       0.10994400E-01  -0.12110956E-02
  7774.4880       0.92535965        1.0943761        1.0083807       0.97739716       0.45418490E-02  -0.18596834E-02
  7776.9970       0.92934902        1.0966177        1.0163041       0.98357274       0.16773861E-02  -0.58415861E-03
  7780.5620       0.93554809        1.0987036        1.0280930       0.99124844       0.99366964E-03  -0.79356486E-03
  7784.1490       0.93645575        1.0995640        1.0346249       0.99773316      -0.39981898E-02  -0.53614133E-03
  7787.6930       0.90703700        1.0992637        1.0107631        1.0029898      -0.28295542E-02   0.67473025E-03
  7791.2820       0.91627254        1.0978650        1.0256261        1.0072186       0.81466110E-03   0.16314576E-03
  7794.8620       0.91287730        1.0954432        1.0278442        1.0104101      -0.16599622E-02  -0.58782195E-03
  7798.4360       0.90439717        1.0920735        1.0249680        1.0126443      -0.33906171E-02  -0.27350033E-03
  7802.0150       0.88862422        1.0878165        1.0148068        1.0139991      -0.36163101E-02   0.20281748E-04
  7805.6140       0.87843929        1.0827167        1.0102650        1.0145425      -0.32450347E-02   0.17692372E-03
  7809.2040       0.86529566        1.0768830        1.0027504        1.0143377      -0.23444055E-02   0.44794012E-03
  7812.8090       0.86157130        1.0703465        1.0046786        1.0134538      -0.22105543E-04  -0.37459025E-04
  7816.3810       0.86513701        1.0632704        1.0138451        1.0119785      -0.26132489E-02  -0.47808406E-03
  7819.9940       0.84279510        1.0555782       0.99716827        1.0099514      -0.34571395E-02   0.28933687E-04
  7823.6050       0.84016264        1.0474252        1.0001977        1.0074604      -0.24042320E-02  -0.17235129E-03
  7827.2230       0.82541491        1.0388633       0.99112295        1.0045713      -0.47030670E-02   0.25036573E-04
  7830.8140       0.80625823        1.0300481       0.97759685        1.0013867      -0.22237433E-02   0.79933529E-03
  7834.4380       0.80937060        1.0209046       0.98639156       0.99792552       0.10641371E-02  -0.57855228E-04
  7838.0600       0.81396896        1.0115910       0.99666912       0.99429112      -0.26429623E-02  -0.41496896E-03
  7841.6900       0.79020384        1.0021549       0.97859573       0.99054678      -0.19452178E-02   0.72994391E-03
  7845.3200       0.79984668       0.99269059       0.99393032       0.98677423       0.26564305E-02   0.12676717E-02
