# XDI/1.0 Athena/0.9.26
# Element.edge:                  K
# Element.symbol:                Co
# Column.1:                      energy eV
# Column.2:                      norm
# Column.3:                      nbkg
# Column.4:                      flat
# Column.5:                      fbkg
# Column.6:                      nder
# Column.7:                      nsec
# Athena.e0:                     7721.54
# Athena.eshift:                 0
# Athena.rbkg:                   1.0
# Athena.importance:             1
# Athena.standard:               None
# Athena.bkg_kweight:            3
# Athena.edge_step:              1.1939711
# Athena.fixed_step:             no
# Athena.pre_edge_range:         -82.964 -19.904
# Athena.pre_edge_line:          0.118310 + 0.000199301 * E
# Athena.normalization_range:    45 125.256
# Athena.post_edge_polynomial:   15.683061 - 0.00166183 * E + 0 * E^2 + 0 * E^3
# Athena.spline_range_energy:    0.000 125.180
# Athena.clamps:                 0 24
# Athena.spline_range_k:         0.000 5.732
# Athena.kweight:                2
# Athena.window:                 hanning
# Athena.phase_correction:       no
# Athena.k_range:                .4 5.35
# Athena.dk:                     .5
# Athena.r_range:                .4 5.1
# Athena.dr:                     .5
# Athena.window:                 hanning
# Athena.plot_multiplier:        1
# Athena.y_offset:               0.2
# ///
#------------------------
#   e         norm        nbkg        flat        fbkg        nder        nsec
  7600.0670      -0.21690488      -0.16904885E-01  -0.21690489      -0.21690489       0.12525291E-01  -0.53254634E-03
  7610.6410      -0.84462458E-01   0.11553754      -0.84462458E-01  -0.84462458E-01   0.68941460E-02  -0.39336517E-03
  7624.5560      -0.48074144E-01   0.15192586      -0.48074144E-01  -0.48074144E-01   0.28921712E-02  -0.20973665E-03
  7637.2000      -0.76492823E-02   0.19235072      -0.76492823E-02  -0.76492823E-02   0.13237502E-02  -0.13090870E-03
  7649.6990      -0.14791092E-01   0.18520891      -0.14791092E-01  -0.14791092E-01  -0.39926610E-03   0.98250104E-04
  7662.1990      -0.17630536E-01   0.18236946      -0.17630536E-01  -0.17630536E-01   0.37799046E-02   0.25692844E-04
  7674.7330       0.79835039E-01   0.27983504       0.79835040E-01   0.79835040E-01   0.24392854E-03  -0.28971130E-03
  7687.3310      -0.11500124E-01   0.18849988      -0.11500124E-01  -0.11500124E-01  -0.35011198E-02   0.66933592E-05
  7700.0100      -0.86627672E-02   0.19133723      -0.86627673E-02  -0.86627672E-02   0.41311658E-03   0.94175374E-03
  7700.3880      -0.61060603E-02   0.19389394      -0.61060603E-02  -0.61060603E-02   0.87953587E-02   0.47235163E-02
  7700.7190      -0.24268579E-02   0.19757314      -0.24268579E-02  -0.24268579E-02   0.37620896E-02  -0.20249555E-01
  7701.0710      -0.35365531E-02   0.19646345      -0.35365531E-02  -0.35365531E-02  -0.50350872E-02  -0.13530230E-02
  7701.4340      -0.60269453E-02   0.19397305      -0.60269453E-02  -0.60269453E-02   0.27946781E-02   0.15516028E-01
  7701.7980      -0.15048221E-02   0.19849518      -0.15048221E-02  -0.15048221E-02   0.62450649E-02  -0.87926287E-02
  7702.1550      -0.15242535E-02   0.19847575      -0.15242535E-02  -0.15242535E-02  -0.35448072E-02  -0.19076199E-01
  7702.5150      -0.40464488E-02   0.19595355      -0.40464489E-02  -0.40464488E-02  -0.74325697E-02  -0.39047062E-03
  7702.8790      -0.69054339E-02   0.19309457      -0.69054340E-02  -0.69054340E-02  -0.38275079E-02   0.10485032E-01
  7703.2420      -0.68290471E-02   0.19317095      -0.68290471E-02  -0.68290471E-02   0.19004857E-03   0.92863771E-02
  7703.6000      -0.67684089E-02   0.19323159      -0.67684090E-02  -0.67684089E-02   0.28679700E-02   0.11751389E-01
  7703.9610      -0.47669767E-02   0.19523302      -0.47669767E-02  -0.47669767E-02   0.86392973E-02   0.16349756E-02
  7704.3250      -0.50491840E-03   0.19949508      -0.50491840E-03  -0.50491838E-03   0.40533273E-02  -0.15898707E-01
  7704.6870      -0.18242610E-02   0.19817574      -0.18242611E-02  -0.18242610E-02  -0.29031640E-02  -0.11345723E-01
  7705.0200      -0.25226174E-02   0.19747738      -0.25226174E-02  -0.25226174E-02  -0.38319501E-02   0.38890735E-02
  7705.3810      -0.44836344E-02   0.19551637      -0.44836344E-02  -0.44836344E-02  -0.20414693E-03   0.28692904E-01
  7705.7490      -0.26714405E-02   0.19732856      -0.26714405E-02  -0.26714405E-02   0.17085177E-01   0.34531597E-01
  7706.1120       0.80056301E-02   0.20800563       0.80056301E-02   0.80056301E-02   0.25038451E-01   0.16961875E-01
  7706.4710       0.15406321E-01   0.21540632       0.15406321E-01   0.15406321E-01   0.29331651E-01   0.11183031E-01
  7706.8310       0.29095087E-01   0.22909509       0.29095087E-01   0.29095087E-01   0.33079050E-01  -0.34506238E-02
  7707.1960       0.39388632E-01   0.23938863       0.39388632E-01   0.39388632E-01   0.26829949E-01  -0.22528291E-01
  7707.5570       0.48573630E-01   0.24857363       0.48573630E-01   0.48573630E-01   0.16723511E-01  -0.33124700E-01
  7707.9150       0.51412836E-01   0.25141284       0.51412837E-01   0.51412837E-01   0.30132894E-02  -0.20168337E-01
  7708.2800       0.50752238E-01   0.25075224       0.50752239E-01   0.50752239E-01   0.21418036E-02  -0.51766740E-02
  7708.6460       0.52978495E-01   0.25297850       0.52978495E-01   0.52978495E-01  -0.77085929E-03  -0.13546815E-01
  7708.9820       0.50211095E-01   0.25021110       0.50211095E-01   0.50211095E-01  -0.73680606E-02   0.76418724E-02
  7709.2900       0.48233464E-01   0.24823346       0.48233464E-01   0.48233464E-01   0.41505066E-02   0.21506487E-01
  7709.5960       0.52759506E-01   0.25275951       0.52759506E-01   0.52759506E-01   0.58369223E-02  -0.17578723E-01
  7709.9030       0.51811497E-01   0.25181150       0.51811497E-01   0.51811497E-01  -0.66252508E-02  -0.30927748E-01
  7710.2110       0.48684977E-01   0.24868498       0.48684977E-01   0.48684977E-01  -0.13183643E-01  -0.13054394E-03
  7710.5140       0.43756291E-01   0.24375629       0.43756292E-01   0.43756292E-01  -0.67050131E-02   0.21352668E-01
  7710.8230       0.44581509E-01   0.24458151       0.44581509E-01   0.44581509E-01  -0.11581031E-03   0.26631159E-01
  7711.1080       0.43687500E-01   0.24368750       0.43687500E-01   0.43687500E-01   0.91138952E-02   0.13274393E-01
  7711.4160       0.49986049E-01   0.24998605       0.49986049E-01   0.49986049E-01   0.77559047E-02  -0.23562390E-01
  7711.7250       0.48472893E-01   0.24847289       0.48472893E-01   0.48472893E-01  -0.54240994E-02  -0.14581855E-01
  7712.0290       0.46661076E-01   0.24666108       0.46661076E-01   0.46661076E-01  -0.11827722E-02  -0.41352172E-05
  7712.3330       0.47753768E-01   0.24775377       0.47753768E-01   0.47753768E-01  -0.54266136E-02   0.99017551E-02
  7712.6440       0.43323709E-01   0.24332371       0.43323709E-01   0.43323709E-01   0.49068072E-02   0.41075707E-01
  7712.9530       0.50795988E-01   0.25079599       0.50795988E-01   0.50795988E-01   0.20040325E-01   0.34860174E-01
  7713.2350       0.55167540E-01   0.25516754       0.55167541E-01   0.55167541E-01   0.25509170E-01   0.47112485E-01
  7713.5380       0.65718853E-01   0.26571885       0.65718853E-01   0.65718853E-01   0.47601129E-01   0.60432062E-01
  7713.8530       0.84585038E-01   0.28458504       0.84585038E-01   0.84585038E-01   0.62856184E-01   0.42199564E-01
  7714.1610       0.10487826       0.30487826       0.10487826       0.10487826       0.73891457E-01   0.11385019E-01
  7714.4700       0.13017607       0.33017607       0.13017607       0.13017607       0.69880741E-01  -0.44222245E-01
  7714.7770       0.14792479       0.34792479       0.14792479       0.14792479       0.46650554E-01  -0.49597430E-01
  7715.0770       0.15849295       0.35849295       0.15849295       0.15849295       0.39775101E-01   0.94762844E-02
  7715.3860       0.17214783       0.37214783       0.17214783       0.17214783       0.52421612E-01   0.96214186E-02
  7715.6700       0.18957897       0.38957897       0.18957897       0.18957897       0.45480602E-01  -0.58186812E-01
  7715.9720       0.19879946       0.39879946       0.19879946       0.19879946       0.18324140E-01  -0.49373218E-01
  7716.1370       0.19813634       0.39813634       0.19813634       0.19813634       0.22423310E-01   0.72801713E-01
  7716.2550       0.20514526       0.40514526       0.20514526       0.20514526       0.38927024E-01   0.68551245E-01
  7716.3670       0.20708956       0.40708956       0.20708956       0.20708956       0.38190096E-01   0.16115502
  7716.4990       0.21446364       0.41446364       0.21446364       0.21446364       0.78248849E-01   0.15287032
  7716.6200       0.22688652       0.42688652       0.22688652       0.22688652       0.76866288E-01  -0.76691911E-01
  7716.7330       0.23245035       0.43245035       0.23245035       0.23245035       0.60302942E-01  -0.15592008
  7716.8670       0.24178134       0.44178134       0.24178134       0.24178134       0.38354028E-01  -0.91834063E-01
  7716.9880       0.24223063       0.44223063       0.24223063       0.24223063       0.36885256E-01   0.78375464E-01
  7717.1010       0.25041249       0.45041249       0.25041249       0.25041249       0.56693886E-01  -0.74595255E-02
  7717.2330       0.25612063       0.45612063       0.25612063       0.25612063       0.35057672E-01   0.39017141E-01
  7717.3500       0.25914185       0.45914185       0.25914185       0.25914185       0.66409154E-01   0.19150825
  7717.4620       0.27132833       0.47132833       0.27132833       0.27132833       0.78913060E-01  -0.41781443E-01
  7717.5920       0.27823881       0.47823882       0.27823882       0.27823882       0.56298045E-01   0.21215814E-01
  7717.7100       0.28529024       0.48529024       0.28529024       0.28529024       0.84174582E-01   0.20024732
  7717.8420       0.29928246       0.49928246       0.29928246       0.29928246       0.10635988       0.38351644E-01
  7717.9600       0.31188021       0.51188021       0.31188021       0.31188021       0.93762493E-01  -0.10566987
  7718.0740       0.32103536       0.52103536       0.32103536       0.32103536       0.81844465E-01   0.22520505E-01
  7718.2060       0.33201395       0.53201395       0.33201395       0.33201395       0.99302537E-01   0.54415364E-01
  7718.3280       0.34625820       0.54625820       0.34625820       0.34625820       0.95665968E-01  -0.75401941E-01
  7718.4410       0.35449545       0.55449545       0.35449545       0.35449545       0.81583081E-01  -0.94382903E-01
  7718.5730       0.36624606       0.56624606       0.36624606       0.36624606       0.72542156E-01   0.10271316
  7718.6930       0.37277608       0.57277608       0.37277608       0.37277608       0.10746680       0.29732673
  7718.8050       0.39117835       0.59117836       0.39117836       0.39117836       0.14152196       0.71223961E-02
  7718.9360       0.40716591       0.60716591       0.40716591       0.40716591       0.10919754      -0.79100170E-01
  7719.0560       0.41858694       0.61858694       0.41858694       0.41858694       0.12166781       0.49977839E-01
  7719.1680       0.43539284       0.63539285       0.43539285       0.43539285       0.12079240       0.76343050E-01
  7719.2990       0.44793949       0.64793949       0.44793949       0.44793949       0.14021918       0.28159089
  7719.4200       0.47072808       0.67072808       0.47072808       0.47072808       0.19175330       0.63098950E-01
  7719.5350       0.49319327       0.69319327       0.49319327       0.49319327       0.15511053      -0.25772933
  7719.6660       0.50888527       0.70888527       0.50888527       0.50888527       0.12835189      -0.25910392E-01
  7719.7880       0.52566630       0.72566630       0.52566630       0.52566630       0.14855520       0.15495953
  7719.9010       0.54379574       0.74379574       0.54379574       0.54379574       0.16476738       0.18889101
  7720.0340       0.56619907       0.76619907       0.56619907       0.56619907       0.19502239       0.14471364
  7720.1540       0.59313640       0.79313640       0.59313640       0.59313640       0.20137993      -0.16251072E-01
  7720.2670       0.61312059       0.81312060       0.61312060       0.61312060       0.19123589      -0.56388072E-01
  7720.3970       0.63960672       0.83960672       0.63960672       0.63960672       0.18767763      -0.85769004E-01
  7720.5160       0.65985232       0.85985233       0.65985233       0.65985233       0.16987940      -0.58568832E-01
  7720.6460       0.68190669       0.88190670       0.68190670       0.68190670       0.17309399       0.13210327
  7720.7660       0.70312582       0.90312582       0.70312582       0.70312582       0.20290522       0.23478682
  7720.8790       0.72918361       0.92918361       0.72918361       0.72918361       0.22779932       0.40309020E-01
  7721.0130       0.75939225       0.95939225       0.75939225       0.75939225       0.21286155      -0.21566521
  7721.1330       0.78325044       0.98325045       0.78325045       0.78325045       0.17302035      -0.10799415
  7721.2460       0.79970599       0.99970600       0.79970600       0.79970600       0.18769892       0.24082041
  7721.3790       0.82942438        1.0294244       0.82942438       0.82942438       0.23226217       0.26244811
  7721.5000       0.85870058        1.0587006       0.85863823       0.85863823       0.25436074       0.39561730E-01
  7721.6120       0.88869043        2.2402464       0.88880266        2.0403586       0.24148005      -0.17470049
  7721.7440       0.91762172        2.2231596       0.91793971        2.0234776       0.21173382       0.36112637E-01
  7721.8620       0.94162388        2.2080184       0.94212581        2.0085203       0.25050821      -0.67762939E-01
  7721.9740       0.97523861        2.1937630       0.97591511        1.9944395       0.19614834      -0.41285265
  7722.1040       0.98909178        2.1773576       0.98997093        1.9782367       0.15059787       0.68257920E-01
  7722.2260        1.0131893        2.1620989        1.0142586        1.9631682       0.21334934       0.24580328
  7722.3580        1.0432825        2.1457386        1.0445576        1.9470136       0.21303191      -0.14352442
  7722.4790        1.0670863        2.1308770        1.0685500        1.9323407       0.17703766      -0.29538233
  7722.5930        1.0848864        2.1169932        1.0865278        1.9186346       0.14361706      -0.31721684
  7722.7240        1.1022725        2.1011799        1.1041181        1.9030255       0.99319532E-01  -0.15608534
  7722.8460        1.1100142        2.0865878        1.1120500        1.8886235       0.10412747       0.26714020
  7722.9580        1.1266383        2.0733057        1.1288487        1.8755161       0.16183034       0.28059074
  7723.0510        1.1431894        2.0623595        1.1455447        1.8647148       0.16164857      -0.16038331
  7723.2130        1.1678587        2.0434700        1.1704666        1.8460779       0.12093259      -0.14619651
  7723.4060        1.1861205        2.0212599        1.1890292        1.8241686       0.10974881       0.94236542E-02
  7723.6030        1.2106608        1.9989170        1.2138765        1.8021327       0.12460782      -0.33750812E-01
  7723.8000        1.2352160        1.9769026        1.2387388        1.7804254       0.96450987E-01  -0.17375961
  7724.0000        1.2489518        1.9548866        1.2527864        1.7587211       0.55625253E-01  -0.20338247
  7724.1980        1.2573548        1.9334194        1.2614980        1.7375626       0.15504763E-01  -0.12961401
  7724.3960        1.2550917        1.9122770        1.2595436        1.7167288       0.42981071E-02   0.50766015E-03
  7724.5920        1.2590483        1.8916656        1.2638057        1.6964229       0.15704781E-01  -0.46958694E-01
  7724.7890        1.2612637        1.8712649        1.2663281        1.6763293      -0.14156660E-01  -0.11700534
  7725.0080        1.2531591        1.8489548        1.2585649        1.6543606      -0.32969439E-01  -0.26531505E-01
  7725.7230        1.2304702        1.7787812        1.2369906        1.5853015      -0.38937085E-01  -0.69774250E-02
  7726.5070        1.1947924        1.7064224        1.2025348        1.5141648      -0.43428600E-01   0.28187269E-02
  7727.3020        1.1618965        1.6378002        1.1708781        1.4467818      -0.34486315E-01   0.55495122E-02
  7728.0660        1.1410283        1.5762194        1.1512008        1.3863919      -0.34776910E-01   0.31799765E-02
  7728.8300        1.1087573        1.5187784        1.1201208        1.3301419      -0.29627311E-01   0.15669054E-01
  7729.5930        1.0957873        1.4654075        1.1083401        1.2779603      -0.10850264E-01   0.17461973E-01
  7730.3530        1.0922324        1.4160795        1.1059698        1.2298169      -0.30327259E-02   0.55943666E-02
  7731.1470        1.0910745        1.3684842        1.1060496        1.1834593      -0.21566185E-02   0.13767352E-02
  7731.9100        1.0888745        1.3263990        1.1050390        1.1425635      -0.88914909E-03  -0.41354704E-02
  7732.6790        1.0897123        1.2874640        1.1070755        1.1048272      -0.84921591E-02  -0.48039637E-02
  7733.4410        1.0758730        1.2521934        1.0944240        1.0707444      -0.82440175E-02   0.59091138E-02
  7734.2140        1.0770577        1.2196401        1.0968136        1.0393959       0.57833056E-03  -0.73910970E-03
  7734.9760        1.0767608        1.1905927        1.0977044        1.0115364      -0.93785509E-02  -0.10500822E-01
  7735.7750        1.0624178        1.1632303        1.0846070       0.98541941      -0.15813452E-01   0.40518919E-02
  7736.5390        1.0520444        1.1398877        1.0754244       0.96326774      -0.30454439E-02   0.66947726E-02
  7737.3090        1.0577461        1.1190112        1.0823264       0.94359151      -0.55436708E-02  -0.10904351E-01
  7738.0780        1.0435126        1.1006768        1.0692916       0.92645572      -0.19827240E-01  -0.80433301E-02
  7738.8440        1.0273113        1.0847734        1.0542843       0.91174643      -0.17890182E-01   0.58313034E-02
  7739.6160        1.0159975        1.0709879        1.0441739       0.89916429      -0.10858695E-01   0.24620925E-02
  7740.3880        1.0105455        1.0593124        1.0399252       0.88869215      -0.14088712E-01  -0.71609072E-02
  7741.1610       0.99423048        1.0495941        1.0248151       0.88017871      -0.21922297E-01  -0.66511626E-02
  7741.9520       0.97625901        1.0415443        1.0080767       0.87336191      -0.24491130E-01   0.14959721E-03
  7744.4520       0.91363017        1.0269905       0.94934475       0.86270510      -0.21429972E-01   0.17405572E-02
  7746.9690       0.86874484        1.0252899       0.90838285       0.86492793      -0.15758755E-01   0.17973665E-02
  7749.4530       0.83482064        1.0315771       0.87833064       0.87508705      -0.12441342E-01   0.10253939E-02
  7751.9350       0.80696113        1.0410371       0.85434001       0.88841597      -0.10666649E-01   0.97484393E-03
  7754.4550       0.78146606        1.0502629       0.83277304       0.90156987      -0.75651729E-02   0.20045091E-02
  7756.9490       0.76902936        1.0585365       0.82422391       0.91373109      -0.61604025E-03   0.25926059E-02
  7759.4300       0.77840126        1.0659449       0.83746313       0.92500679       0.53330416E-02   0.16893038E-02
  7761.9470       0.79568390        1.0726471       0.85866920       0.93563235       0.78271004E-02   0.11560368E-02
  7764.4680       0.81783419        1.0785628       0.88474915       0.94547773       0.11157155E-01   0.55738453E-03
  7766.9650       0.85167050        1.0836600       0.92247772       0.95446723       0.10624056E-01  -0.41588497E-04
  7769.4620       0.87089073        1.0880228       0.94559020       0.96272228       0.10949462E-01  -0.59134824E-05
  7771.9870       0.90665870        1.0917121       0.98529407       0.97034749       0.10594358E-01  -0.11592185E-02
  7774.4880       0.92413798        1.0946745        1.0066718       0.97720837       0.51232298E-02  -0.16547060E-02
  7776.9970       0.93232608        1.0969788        1.0187709       0.98342362       0.23042815E-02  -0.76212136E-03
  7780.5620       0.93813418        1.0991506        1.0301360       0.99115240       0.49410464E-03  -0.87486919E-03
  7784.1490       0.93585992        1.1000933        1.0334531       0.99768641      -0.39527830E-02  -0.49579317E-03
  7787.6930       0.90994689        1.0998700        1.0130643        1.0029874      -0.30413965E-02   0.63484032E-03
  7791.2820       0.91416564        1.0985447        1.0228775        1.0072565       0.57553304E-03   0.23650003E-03
  7794.8620       0.91407288        1.0961912        1.0283652        1.0104834      -0.13459278E-02  -0.58632145E-03
  7798.4360       0.90453687        1.0928844        1.0244002        1.0127477      -0.36190106E-02  -0.25976848E-03
  7802.0150       0.88818610        1.0886851        1.0136283        1.0141272      -0.32040517E-02   0.61061596E-04
  7805.6140       0.88153819        1.0836375        1.0125904        1.0146897      -0.31807105E-02   0.10880563E-03
  7809.2040       0.86531997        1.0778499        1.0019682        1.0144981      -0.24218480E-02   0.48225659E-03
  7812.8090       0.86411299        1.0713534        1.0063805        1.0136209       0.28912572E-03  -0.63783400E-04
  7816.3810       0.86739503        1.0643104        1.0152305        1.0121459      -0.28796215E-02  -0.55715562E-03
  7819.9940       0.84342291        1.0566449       0.99689024        1.0101123      -0.37140374E-02   0.33813251E-04
  7823.6050       0.84056482        1.0485115       0.99966088        1.0076076      -0.26353546E-02  -0.90908311E-04
  7827.2230       0.82437193        1.0399617       0.98910762        1.0046974      -0.43712136E-02   0.64484919E-04
  7830.8140       0.80905274        1.0311509       0.97938598        1.0014842      -0.21704828E-02   0.73642267E-03
  7834.4380       0.80871190        1.0220039       0.98469413       0.99798610       0.94207600E-03  -0.41811700E-04
  7838.0600       0.81587902        1.0126785       0.99750713       0.99430659      -0.24734504E-02  -0.41536946E-03
  7841.6900       0.79077444        1.0032220       0.97806088       0.99050845      -0.20701834E-02   0.72299562E-03
  7845.3200       0.80084949       0.99372847       0.99379428       0.98667325       0.27754978E-02   0.13348984E-02
