# XDI/1.0 Athena/0.9.26
# Element.edge:                  K
# Element.symbol:                Co
# Column.1:                      energy eV
# Column.2:                      norm
# Column.3:                      nbkg
# Column.4:                      flat
# Column.5:                      fbkg
# Column.6:                      nder
# Column.7:                      nsec
# Athena.e0:                     7721.54
# Athena.eshift:                 0
# Athena.rbkg:                   1.0
# Athena.importance:             1
# Athena.standard:               None
# Athena.bkg_kweight:            3
# Athena.edge_step:              1.1931669
# Athena.fixed_step:             no
# Athena.pre_edge_range:         -82.964 -19.904
# Athena.pre_edge_line:          0.099930 + 0.000201589 * E
# Athena.normalization_range:    45 125.256
# Athena.post_edge_polynomial:   15.558371 - 0.00164588 * E + 0 * E^2 + 0 * E^3
# Athena.spline_range_energy:    0.000 125.180
# Athena.clamps:                 0 24
# Athena.spline_range_k:         0.000 5.732
# Athena.kweight:                2
# Athena.window:                 hanning
# Athena.phase_correction:       no
# Athena.k_range:                .4 5.35
# Athena.dk:                     .5
# Athena.r_range:                .4 5.1
# Athena.dr:                     .5
# Athena.window:                 hanning
# Athena.plot_multiplier:        1
# Athena.y_offset:               0.2
# ///
#------------------------
#   e         norm        nbkg        flat        fbkg        nder        nsec
  7600.0670      -0.21245326      -0.12453266E-01  -0.21245327      -0.21245327       0.12124227E-01  -0.51033366E-03
  7610.6410      -0.84251684E-01   0.11574832      -0.84251685E-01  -0.84251685E-01   0.67279592E-02  -0.37695427E-03
  7624.5560      -0.47692270E-01   0.15230773      -0.47692270E-01  -0.47692270E-01   0.28929941E-02  -0.20438605E-03
  7637.2000      -0.74166531E-02   0.19258335      -0.74166532E-02  -0.74166532E-02   0.12996701E-02  -0.12991286E-03
  7649.6990      -0.15014665E-01   0.18498533      -0.15014665E-01  -0.15014665E-01  -0.37340490E-03   0.97166514E-04
  7662.1990      -0.16751402E-01   0.18324860      -0.16751403E-01  -0.16751403E-01   0.37287358E-02   0.23399287E-04
  7674.7330       0.78330507E-01   0.27833051       0.78330508E-01   0.78330508E-01   0.21237285E-03  -0.28547452E-03
  7687.3310      -0.11414048E-01   0.18858595      -0.11414048E-01  -0.11414048E-01  -0.34458099E-02   0.87491272E-05
  7700.0100      -0.87692313E-02   0.19123077      -0.87692314E-02  -0.87692314E-02   0.43352453E-03   0.98457088E-03
  7700.3880      -0.57535181E-02   0.19424648      -0.57535182E-02  -0.57535182E-02   0.94097320E-02   0.60422750E-02
  7700.7190      -0.20977313E-02   0.19790227      -0.20977313E-02  -0.20977313E-02   0.47174975E-02  -0.22441235E-01
  7701.0710      -0.25314673E-02   0.19746853      -0.25314673E-02  -0.25314674E-02  -0.59176316E-02  -0.60620926E-02
  7701.4340      -0.63288379E-02   0.19367116      -0.63288380E-02  -0.63288380E-02   0.38310134E-03   0.16582706E-01
  7701.7980      -0.22529526E-02   0.19774705      -0.22529527E-02  -0.22529527E-02   0.61379956E-02  -0.55509311E-02
  7702.1550      -0.19033431E-02   0.19809666      -0.19033431E-02  -0.19033431E-02  -0.36191200E-02  -0.14932721E-01
  7702.5150      -0.48478617E-02   0.19515214      -0.48478617E-02  -0.48478618E-02  -0.45687651E-02   0.25216771E-02
  7702.8790      -0.52111290E-02   0.19478887      -0.52111291E-02  -0.52111291E-02  -0.17934258E-02   0.21002743E-02
  7703.2420      -0.61516822E-02   0.19384832      -0.61516823E-02  -0.61516823E-02  -0.30418657E-02   0.73789560E-02
  7703.6000      -0.74043142E-02   0.19259569      -0.74043143E-02  -0.74043143E-02   0.35268015E-02   0.16872042E-01
  7703.9610      -0.36159119E-02   0.19638409      -0.36159120E-02  -0.36159120E-02   0.90891323E-02  -0.11140310E-02
  7704.3250      -0.81469324E-03   0.19918531      -0.81469325E-03  -0.81469326E-03   0.27191290E-02  -0.17292243E-01
  7704.6870      -0.16418243E-02   0.19835818      -0.16418243E-02  -0.16418243E-02  -0.34650361E-02  -0.94118285E-02
  7705.0200      -0.32228933E-02   0.19677711      -0.32228934E-02  -0.32228934E-02  -0.38220918E-02   0.72543928E-02
  7705.3810      -0.42943560E-02   0.19570564      -0.42943560E-02  -0.42943560E-02   0.15695125E-02   0.29315048E-01
  7705.7490      -0.20787187E-02   0.19792128      -0.20787187E-02  -0.20787187E-02   0.17548578E-01   0.31917640E-01
  7706.1120       0.85336549E-02   0.20853365       0.85336550E-02   0.85336550E-02   0.24901307E-01   0.16589009E-01
  7706.4710       0.15900025E-01   0.21590003       0.15900025E-01   0.15900025E-01   0.29525843E-01   0.11665086E-01
  7706.8310       0.29762736E-01   0.22976274       0.29762736E-01   0.29762736E-01   0.33288504E-01  -0.55464747E-02
  7707.1960       0.40034191E-01   0.24003419       0.40034191E-01   0.40034191E-01   0.25504649E-01  -0.21782277E-01
  7707.5570       0.48279111E-01   0.24827911       0.48279112E-01   0.48279112E-01   0.17474571E-01  -0.29840310E-01
  7707.9150       0.52598407E-01   0.25259841       0.52598408E-01   0.52598408E-01   0.40494658E-02  -0.21495717E-01
  7708.2800       0.51206875E-01   0.25120688       0.51206875E-01   0.51206875E-01   0.19331672E-02  -0.50375339E-02
  7708.6460       0.54011552E-01   0.25401155       0.54011553E-01   0.54011553E-01   0.36702849E-03  -0.13541241E-01
  7708.9820       0.51464529E-01   0.25146453       0.51464529E-01   0.51464529E-01  -0.75727843E-02   0.30549081E-02
  7709.2900       0.49134679E-01   0.24913468       0.49134680E-01   0.49134680E-01   0.23343893E-02   0.20134550E-01
  7709.5960       0.52897844E-01   0.25289784       0.52897845E-01   0.52897844E-01   0.47898297E-02  -0.13577063E-01
  7709.9030       0.52070845E-01   0.25207085       0.52070845E-01   0.52070845E-01  -0.59883504E-02  -0.27144500E-01
  7710.2110       0.49215008E-01   0.24921501       0.49215009E-01   0.49215009E-01  -0.11904038E-01  -0.11924570E-02
  7710.5140       0.44797477E-01   0.24479748       0.44797478E-01   0.44797478E-01  -0.67169417E-02   0.17872887E-01
  7710.8230       0.45104240E-01   0.24510424       0.45104241E-01   0.45104241E-01  -0.96583092E-03   0.25319543E-01
  7711.1080       0.44223774E-01   0.24422377       0.44223775E-01   0.44223775E-01   0.83228666E-02   0.10823873E-01
  7711.4160       0.50039700E-01   0.25003970       0.50039701E-01   0.50039701E-01   0.54527257E-02  -0.22707267E-01
  7711.7250       0.47588106E-01   0.24758811       0.47588106E-01   0.47588106E-01  -0.56875170E-02  -0.61501763E-02
  7712.0290       0.46553252E-01   0.24655325       0.46553253E-01   0.46553253E-01   0.16826676E-02   0.51448989E-03
  7712.3330       0.48611168E-01   0.24861117       0.48611168E-01   0.48611168E-01  -0.53747072E-02  -0.87646451E-03
  7712.6440       0.43247807E-01   0.24324781       0.43247808E-01   0.43247808E-01   0.11436420E-02   0.38329665E-01
  7712.9530       0.49320226E-01   0.24932023       0.49320226E-01   0.49320226E-01   0.18389685E-01   0.43130912E-01
  7713.2350       0.54116111E-01   0.25411611       0.54116112E-01   0.54116112E-01   0.26634011E-01   0.48871056E-01
  7713.5380       0.64901122E-01   0.26490112       0.64901123E-01   0.64901123E-01   0.46979253E-01   0.61548363E-01
  7713.8530       0.83149289E-01   0.28314929       0.83149290E-01   0.83149290E-01   0.64670900E-01   0.42252191E-01
  7714.1610       0.10519109       0.30519109       0.10519109       0.10519109       0.73302368E-01   0.21229467E-03
  7714.4700       0.12837685       0.32837685       0.12837685       0.12837685       0.64801885E-01  -0.41880415E-01
  7714.7770       0.14510905       0.34510906       0.14510906       0.14510906       0.47504032E-01  -0.36492291E-01
  7715.0770       0.15721180       0.35721180       0.15721180       0.15721180       0.42651065E-01   0.36088592E-02
  7715.3860       0.17108355       0.37108355       0.17108355       0.17108355       0.49701827E-01  -0.12419403E-02
  7715.6700       0.18668498       0.38668498       0.18668498       0.18668498       0.41914594E-01  -0.42090463E-01
  7715.9720       0.19564550       0.39564551       0.19564551       0.19564551       0.25036816E-01  -0.39084139E-01
  7716.1370       0.19837717       0.39837718       0.19837718       0.19837718       0.23662301E-01   0.13187082E-01
  7716.2550       0.20234194       0.40234194       0.20234194       0.20234194       0.28768760E-01   0.10113185
  7716.3670       0.20499399       0.40499399       0.20499399       0.20499399       0.46922626E-01   0.19181405
  7716.4990       0.21379106       0.41379106       0.21379106       0.21379106       0.75571388E-01   0.69785956E-01
  7716.6200       0.22411355       0.42411355       0.22411355       0.22411355       0.64578473E-01  -0.81056976E-01
  7716.7330       0.22890242       0.42890242       0.22890242       0.22890242       0.56604056E-01  -0.68183152E-01
  7716.8670       0.23809475       0.43809475       0.23809475       0.23809475       0.47737235E-01  -0.28571359E-01
  7716.9880       0.24107541       0.44107542       0.24107542       0.24107542       0.49318359E-01   0.30644156E-01
  7717.1010       0.24963525       0.44963525       0.24963525       0.24963525       0.54907967E-01  -0.86236610E-01
  7717.2330       0.25452787       0.45452787       0.25452787       0.25452787       0.28190390E-01   0.51063808E-01
  7717.3500       0.25665465       0.45665466       0.25665466       0.25665466       0.67622855E-01   0.21667012
  7717.4620       0.27001350       0.47001350       0.27001350       0.27001350       0.77807848E-01  -0.98954063E-01
  7717.5920       0.27548415       0.47548416       0.27548416       0.27548416       0.43675972E-01   0.36702883E-01
  7717.7100       0.28084514       0.48084514       0.28084514       0.28084514       0.86910163E-01   0.30053011
  7717.8420       0.29721169       0.49721170       0.29721170       0.29721170       0.11880850      -0.26176663E-01
  7717.9600       0.31054727       0.51054727       0.31054727       0.31054727       0.80365997E-01  -0.16650288
  7718.0740       0.31585661       0.51585661       0.31585661       0.31585661       0.80179832E-01   0.11515643
  7718.2060       0.33027150       0.53027151       0.33027151       0.33027151       0.10869448       0.64499944E-01
  7718.3280       0.34346500       0.54346501       0.34346501       0.34346501       0.96562818E-01  -0.17905213
  7718.4410       0.35296377       0.55296377       0.35296377       0.35296377       0.66617227E-01  -0.80174456E-01
  7718.5730       0.35978622       0.55978623       0.35978623       0.35978623       0.76920076E-01   0.17991809
  7718.6930       0.37234763       0.57234763       0.37234763       0.37234763       0.11195659       0.22351776
  7718.8050       0.38576015       0.58576016       0.38576016       0.38576016       0.12877620      -0.36778062E-03
  7718.9360       0.40364024       0.60364025       0.40364025       0.40364025       0.11186721       0.42921966E-02
  7719.0560       0.41383882       0.61383883       0.41383883       0.41383883       0.12985354       0.85516080E-01
  7719.1680       0.43376626       0.63376627       0.43376627       0.43376627       0.13170695      -0.42459324E-01
  7719.2990       0.44584361       0.64584362       0.44584362       0.44584362       0.11953592       0.21674006
  7719.4200       0.46388931       0.66388932       0.46388932       0.46388932       0.18632544       0.17328051
  7719.5350       0.48981641       0.68981642       0.48981642       0.48981642       0.16043012      -0.28350943
  7719.6660       0.50335512       0.70335513       0.50335513       0.50335513       0.11658212      -0.41181621E-01
  7719.7880       0.51931169       0.71931170       0.51931170       0.51931170       0.15001117       0.20716136
  7719.9010       0.53860775       0.73860776       0.53860776       0.53860776       0.16526504       0.15939038
  7720.0340       0.55996689       0.75996690       0.55996690       0.55996690       0.18922121       0.22624524
  7720.1540       0.58648072       0.78648072       0.58648072       0.58648072       0.22250509       0.66890228E-01
  7720.2670       0.61181057       0.81181058       0.61181058       0.61181058       0.20480663      -0.23674297
  7720.3970       0.63624873       0.83624873       0.63624873       0.63624873       0.16497654      -0.14732783
  7720.5160       0.65288973       0.85288974       0.65288974       0.65288974       0.16812200       0.23285792E-01
  7720.6460       0.67811110       0.87811111       0.67811111       0.67811111       0.17077471       0.14196643
  7720.7660       0.69558341       0.89558342       0.69558342       0.69558342       0.20361361       0.31061774
  7720.8790       0.72555307       0.92555308       0.72555308       0.72555308       0.24314864      -0.14932207E-01
  7721.0130       0.75564113       0.95564114       0.75564114       0.75564114       0.19992535      -0.25134407
  7721.1330       0.77633411       0.97633412       0.77633412       0.77633412       0.17930725      -0.20453633E-01
  7721.2460       0.79741971       0.99741972       0.79741972       0.79741972       0.19515966       0.16714127
  7721.3790       0.82434339        1.0243434       0.82434340       0.82434340       0.22042400       0.24112774
  7721.5000       0.85340741        1.0534074       0.85334547       0.85334547       0.25640610       0.18432122
  7721.6120       0.88408601        2.2461512       0.88419749        2.0462627       0.26337084      -0.13439446
  7721.7440       0.91766990        2.2290039       0.91798576        2.0293198       0.22361385      -0.11054734
  7721.8620       0.93998947        2.2138091       0.94048805        2.0143076       0.23573401      -0.95948619E-01
  7721.9740       0.97188872        2.1995031       0.97256071        2.0001751       0.20154567      -0.31444570
  7722.1040       0.98876353        2.1830394       0.98963681        1.9839127       0.15963815       0.10011616E-01
  7722.2260        1.0121175        2.1677266        1.0131797        1.9687887       0.20406860       0.19907226
  7722.3580        1.0405969        2.1513080        1.0418635        1.9525746       0.21020250      -0.47234170E-01
  7722.4790        1.0652988        2.1363936        1.0667527        1.9378475       0.19211835      -0.26234148
  7722.5930        1.0857448        2.1224603        1.0873752        1.9240908       0.14855225      -0.40971755
  7722.7240        1.1016941        2.1065906        1.1035273        1.9084239       0.91737553E-01  -0.14552957
  7722.8460        1.1089544        2.0919464        1.1109765        1.8939686       0.11173327       0.38059487
  7722.9580        1.1278397        2.0786169        1.1300352        1.8808125       0.18079675       0.25881059
  7723.0510        1.1460177        2.0676315        1.1483573        1.8699711       0.16478944      -0.25157534
  7723.2130        1.1698610        2.0486745        1.1724514        1.8512649       0.11664504      -0.15676864
  7723.4060        1.1874267        2.0263848        1.1903159        1.8292740       0.10913658       0.18737356E-01
  7723.6030        1.2124242        2.0039616        1.2156185        1.8071559       0.12395261      -0.27555439E-01
  7723.8000        1.2362640        1.9818681        1.2397633        1.7853674       0.98279735E-01  -0.16018059
  7724.0000        1.2514413        1.9597728        1.2552503        1.7635818       0.60360915E-01  -0.19313264
  7724.1980        1.2602877        1.9382282        1.2644032        1.7423438       0.21412946E-01  -0.14629700
  7724.3960        1.2599208        1.9170094        1.2643430        1.7214315       0.24273025E-02  -0.32367802E-01
  7724.5920        1.2612440        1.8963233        1.2659696        1.7010490       0.86600319E-02  -0.82039955E-02
  7724.7890        1.2633242        1.8758487        1.2683549        1.6808793      -0.79686768E-03  -0.98691073E-01
  7725.0080        1.2609125        1.8534576        1.2662823        1.6588273      -0.32395455E-01  -0.42180404E-01
  7725.7230        1.2330668        1.7830279        1.2395437        1.5895048      -0.40193365E-01  -0.77811633E-02
  7726.5070        1.2006627        1.7104031        1.2083534        1.5180939      -0.44059418E-01   0.92435779E-03
  7727.3020        1.1634970        1.6415265        1.1724187        1.4504482      -0.38733804E-01   0.60703581E-02
  7728.0660        1.1402767        1.5797152        1.1503813        1.3898199      -0.34595730E-01   0.65895871E-02
  7728.8300        1.1106347        1.5220572        1.1219224        1.3333448      -0.28664915E-01   0.15816009E-01
  7729.5930        1.0965053        1.4684823        1.1089744        1.2809514      -0.10444685E-01   0.16942662E-01
  7730.3530        1.0947275        1.4189636        1.1083733        1.2326094      -0.28612411E-02   0.51245602E-02
  7731.1470        1.0920590        1.3711819        1.1069342        1.1860571      -0.24811184E-02   0.23553504E-02
  7731.9100        1.0908644        1.3289295        1.1069210        1.1449861       0.80603941E-03  -0.39341001E-02
  7732.6790        1.0932938        1.2898373        1.1105411        1.1070845      -0.85081598E-02  -0.55757334E-02
  7733.4410        1.0778384        1.2544216        1.0962656        1.0728488      -0.77304084E-02   0.53525796E-02
  7734.2140        1.0814276        1.2217317        1.1010517        1.0413558      -0.29195003E-03  -0.35131915E-02
  7734.9760        1.0773903        1.1925598        1.0981942        1.0133637      -0.13123157E-01  -0.10309196E-01
  7735.7750        1.0609424        1.1650769        1.0829835       0.98711790      -0.16384604E-01   0.77862326E-02
  7736.5390        1.0517811        1.1416284        1.0750051       0.96485240      -0.95327595E-03   0.78498515E-02
  7737.3090        1.0594801        1.1206540        1.0838963       0.94507022      -0.43429320E-02  -0.12244537E-01
  7738.0780        1.0450973        1.1022300        1.0707043       0.92783698      -0.19797618E-01  -0.86920200E-02
  7738.8440        1.0290907        1.0862455        1.0558837       0.91303850      -0.17685183E-01   0.54581779E-02
  7739.6160        1.0178975        1.0723857        1.0458859       0.90037402      -0.11402941E-01   0.17088922E-02
  7740.3880        1.0114846        1.0606430        1.0406683       0.88982666      -0.15046653E-01  -0.53837463E-02
  7741.1610       0.99465046        1.0508640        1.0250310       0.88124459      -0.19720829E-01  -0.55549719E-02
  7741.9520       0.98064121        1.0427587        1.0122466       0.87436405      -0.23734629E-01  -0.69498168E-03
  7744.4520       0.91653979        1.0280674       0.95201606       0.86354366      -0.22008013E-01   0.15214863E-02
  7746.9690       0.87022701        1.0262748       0.90960053       0.86564832      -0.16101333E-01   0.18763075E-02
  7749.4530       0.83601703        1.0325022       0.87923670       0.87572186      -0.12624600E-01   0.11031816E-02
  7751.9350       0.80753325        1.0419188       0.85459597       0.88898153      -0.10622933E-01   0.98775927E-03
  7754.4550       0.78288112        1.0511059       0.83384574       0.90207051      -0.76838279E-02   0.19663025E-02
  7756.9490       0.76900653        1.0593450       0.82383279       0.91417125      -0.76389206E-03   0.26211477E-02
  7759.4300       0.77908075        1.0667226       0.83774852       0.92539039       0.53563819E-02   0.16476836E-02
  7761.9470       0.79577773        1.0733972       0.85834275       0.93596219       0.74712303E-02   0.11747394E-02
  7764.4680       0.81672081        1.0792888       0.88318927       0.94575728       0.11274719E-01   0.62795540E-03
  7766.9650       0.85235427        1.0843657       0.92268901       0.95470042       0.10622311E-01  -0.66998912E-04
  7769.4620       0.86976863        1.0887114       0.94396965       0.96291244       0.10940126E-01   0.53424876E-04
  7771.9870       0.90729558        1.0923868       0.98540624       0.97049745       0.10890610E-01  -0.11212554E-02
  7774.4880       0.92450484        1.0953386        1.0064880       0.97732172       0.53046967E-02  -0.17515242E-02
  7776.9970       0.93387211        1.0976354        1.0197401       0.98350338       0.21154740E-02  -0.73798036E-03
  7780.5620       0.93735423        1.0998017        1.0287422       0.99118966       0.82220402E-03  -0.84158766E-03
  7784.1490       0.93975252        1.1007450        1.0366945       0.99768690      -0.39035610E-02  -0.58406708E-03
  7787.6930       0.90951793        1.1005279        1.0119473        1.0029573      -0.33427784E-02   0.64822893E-03
  7791.2820       0.91590848        1.0992144        1.0238950        1.0072009       0.72025598E-03   0.25522910E-03
  7794.8620       0.91468145        1.0968779        1.0282111        1.0104076      -0.15130410E-02  -0.58055158E-03
  7798.4360       0.90508418        1.0935933        1.0241477        1.0126568      -0.34330100E-02  -0.24702852E-03
  7802.0150       0.89012513        1.0894209        1.0147303        1.0140260      -0.32800360E-02   0.35686116E-04
  7805.6140       0.88154008        1.0844050        1.0117178        1.0145827      -0.31768550E-02   0.13204993E-03
  7809.2040       0.86728672        1.0786534        1.0030231        1.0143898      -0.23307290E-02   0.42413723E-03
  7812.8090       0.86477049        1.0721973        1.0060887        1.0135155      -0.12518771E-03  -0.88278460E-04
  7816.3810       0.86638825        1.0651982        1.0132373        1.0120473      -0.29643035E-02  -0.47636589E-03
  7819.9940       0.84347197        1.0575808       0.99591527        1.0100241      -0.35478766E-02   0.75419361E-04
  7823.6050       0.84075838        1.0494990       0.99879285        1.0075334      -0.24194740E-02  -0.88466661E-04
  7827.2230       0.82598159        1.0410041       0.98961806        1.0046405      -0.41874021E-02   0.44437826E-04
  7830.8140       0.81057140        1.0322508       0.97976807        1.0014475      -0.20991217E-02   0.70524809E-03
  7834.4380       0.81083643        1.0231646       0.98564439       0.99797252       0.90096283E-03  -0.66799633E-04
  7838.0600       0.81709978        1.0139025       0.99751594       0.99431866      -0.25831519E-02  -0.40685480E-03
  7841.6900       0.79210341        1.0045118       0.97814016       0.99054855      -0.20495482E-02   0.73968421E-03
  7845.3200       0.80222006       0.99508613       0.99387739       0.98674346       0.27869555E-02   0.13323702E-02
