# XDI/1.0 Athena/0.9.26
# Element.edge:                  K
# Element.symbol:                Co
# Column.1:                      energy eV
# Column.2:                      norm
# Column.3:                      nbkg
# Column.4:                      flat
# Column.5:                      fbkg
# Column.6:                      nder
# Column.7:                      nsec
# Athena.e0:                     7721.54
# Athena.eshift:                 0
# Athena.rbkg:                   1.0
# Athena.importance:             1
# Athena.standard:               None
# Athena.bkg_kweight:            3
# Athena.edge_step:              1.1938391
# Athena.fixed_step:             no
# Athena.pre_edge_range:         -82.964 -19.904
# Athena.pre_edge_line:          0.131834 + 0.000197462 * E
# Athena.normalization_range:    45 125.256
# Athena.post_edge_polynomial:   15.640078 - 0.00165637 * E + 0 * E^2 + 0 * E^3
# Athena.spline_range_energy:    0.000 125.180
# Athena.clamps:                 0 24
# Athena.spline_range_k:         0.000 5.732
# Athena.kweight:                2
# Athena.window:                 hanning
# Athena.phase_correction:       no
# Athena.k_range:                .4 5.35
# Athena.dk:                     .5
# Athena.r_range:                .4 5.1
# Athena.dr:                     .5
# Athena.window:                 hanning
# Athena.plot_multiplier:        1
# Athena.y_offset:               0.2
# ///
#------------------------
#   e         norm        nbkg        flat        fbkg        nder        nsec
  7600.0670      -0.21295829      -0.12958283E-01  -0.21295828      -0.21295828       0.12039277E-01  -0.49675107E-03
  7610.6410      -0.85654980E-01   0.11434502      -0.85654977E-01  -0.85654977E-01   0.67866308E-02  -0.37184671E-03
  7624.5560      -0.46760489E-01   0.15323951      -0.46760487E-01  -0.46760487E-01   0.29331226E-02  -0.20743593E-03
  7637.2000      -0.77541777E-02   0.19224582      -0.77541775E-02  -0.77541774E-02   0.12773400E-02  -0.13026764E-03
  7649.6990      -0.14644328E-01   0.18535567      -0.14644328E-01  -0.14644328E-01  -0.34219678E-03   0.95998916E-04
  7662.1990      -0.16308755E-01   0.18369125      -0.16308755E-01  -0.16308755E-01   0.36772169E-02   0.22628283E-04
  7674.7330       0.77411121E-01   0.27741112       0.77411118E-01   0.77411118E-01   0.22427966E-03  -0.28153490E-03
  7687.3310      -0.10672159E-01   0.18932784      -0.10672158E-01  -0.10672158E-01  -0.33983181E-02   0.47968107E-05
  7700.0100      -0.84881656E-02   0.19151183      -0.84881653E-02  -0.84881653E-02   0.34552864E-03   0.89075260E-03
  7700.3880      -0.61605912E-02   0.19383941      -0.61605910E-02  -0.61605910E-02   0.82322386E-02   0.65510585E-02
  7700.7190      -0.26515085E-02   0.19734849      -0.26515084E-02  -0.26515084E-02   0.49902291E-02  -0.19804918E-01
  7701.0710      -0.27522647E-02   0.19724774      -0.27522646E-02  -0.27522646E-02  -0.52945201E-02  -0.46511914E-02
  7701.4340      -0.64370904E-02   0.19356291      -0.64370902E-02  -0.64370901E-02   0.16646273E-02   0.15941630E-01
  7701.7980      -0.15420807E-02   0.19845792      -0.15420806E-02  -0.15420806E-02   0.62950446E-02  -0.81946563E-02
  7702.1550      -0.18983632E-02   0.19810164      -0.18983632E-02  -0.18983632E-02  -0.42437199E-02  -0.16240097E-01
  7702.5150      -0.45848279E-02   0.19541517      -0.45848277E-02  -0.45848277E-02  -0.53491050E-02   0.37231419E-02
  7702.8790      -0.57711153E-02   0.19422888      -0.57711151E-02  -0.57711151E-02  -0.15481652E-02   0.44609838E-02
  7703.2420      -0.57103440E-02   0.19428966      -0.57103438E-02  -0.57103437E-02  -0.21059698E-02   0.62286592E-02
  7703.6000      -0.72895195E-02   0.19271048      -0.72895193E-02  -0.72895193E-02   0.29426982E-02   0.15734029E-01
  7703.9610      -0.35945440E-02   0.19640546      -0.35945439E-02  -0.35945438E-02   0.92067974E-02   0.44821170E-03
  7704.3250      -0.61459143E-03   0.19938541      -0.61459141E-03  -0.61459139E-03   0.32676516E-02  -0.15199763E-01
  7704.6870      -0.12222289E-02   0.19877777      -0.12222288E-02  -0.12222288E-02  -0.18282308E-02  -0.96545365E-02
  7705.0200      -0.18852118E-02   0.19811479      -0.18852118E-02  -0.18852117E-02  -0.34422512E-02   0.11856324E-02
  7705.3810      -0.36111512E-02   0.19638885      -0.36111511E-02  -0.36111511E-02  -0.10054019E-02   0.27546613E-01
  7705.7490      -0.26181498E-02   0.19738185      -0.26181497E-02  -0.26181497E-02   0.16639230E-01   0.37795890E-01
  7706.1120       0.85521257E-02   0.20855213       0.85521254E-02   0.85521254E-02   0.26623394E-01   0.16199100E-01
  7706.4710       0.16603941E-01   0.21660394       0.16603940E-01   0.16603940E-01   0.28334980E-01   0.44220695E-02
  7706.8310       0.28924976E-01   0.22892498       0.28924975E-01   0.28924975E-01   0.29802862E-01  -0.22863562E-02
  7707.1960       0.38211015E-01   0.23821101       0.38211014E-01   0.38211014E-01   0.26677372E-01  -0.16462304E-01
  7707.5570       0.48292748E-01   0.24829275       0.48292746E-01   0.48292746E-01   0.17851229E-01  -0.33764138E-01
  7707.9150       0.51046049E-01   0.25104605       0.51046047E-01   0.51046047E-01   0.24009561E-02  -0.20255132E-01
  7708.2800       0.50028639E-01   0.25002864       0.50028638E-01   0.50028638E-01   0.32067684E-02  -0.50878490E-04
  7708.6460       0.53390197E-01   0.25339020       0.53390195E-01   0.53390195E-01   0.23637639E-02  -0.14198693E-01
  7708.9820       0.51688002E-01   0.25168800       0.51688000E-01   0.51688000E-01  -0.67607140E-02  -0.20103488E-02
  7709.2900       0.49036297E-01   0.24903630       0.49036295E-01   0.49036295E-01   0.10690993E-02   0.21400018E-01
  7709.5960       0.52344429E-01   0.25234443       0.52344427E-01   0.52344427E-01   0.63788969E-02  -0.12246978E-01
  7709.9030       0.52946561E-01   0.25294656       0.52946559E-01   0.52946559E-01  -0.64382979E-02  -0.31248022E-01
  7710.2110       0.48384875E-01   0.24838487       0.48384874E-01   0.48384874E-01  -0.12838637E-01   0.12602488E-02
  7710.5140       0.45102154E-01   0.24510215       0.45102152E-01   0.45102152E-01  -0.56682859E-02   0.17924936E-01
  7710.8230       0.44915884E-01   0.24491588       0.44915883E-01   0.44915883E-01  -0.18685758E-02   0.22124138E-01
  7711.1080       0.43992220E-01   0.24399222       0.43992218E-01   0.43992218E-01   0.74734523E-02   0.11092749E-01
  7711.4160       0.49347642E-01   0.24934764       0.49347640E-01   0.49347640E-01   0.47094243E-02  -0.20776177E-01
  7711.7250       0.46897935E-01   0.24689793       0.46897933E-01   0.46897933E-01  -0.53454490E-02  -0.58428147E-02
  7712.0290       0.46070881E-01   0.24607088       0.46070880E-01   0.46070880E-01   0.11277789E-02  -0.31411980E-02
  7712.3330       0.47583624E-01   0.24758362       0.47583623E-01   0.47583623E-01  -0.72552974E-02  -0.13533425E-02
  7712.6440       0.41608873E-01   0.24160887       0.41608872E-01   0.41608872E-01   0.29547319E-03   0.41388419E-01
  7712.9530       0.47766818E-01   0.24776682       0.47766816E-01   0.47766816E-01   0.18405522E-01   0.43078627E-01
  7713.2350       0.52486537E-01   0.25248654       0.52486535E-01   0.52486535E-01   0.25754942E-01   0.46579192E-01
  7713.5380       0.62833459E-01   0.26283346       0.62833456E-01   0.62833456E-01   0.45654349E-01   0.60040674E-01
  7713.8530       0.80700925E-01   0.28070092       0.80700922E-01   0.80700922E-01   0.62860079E-01   0.46924461E-01
  7714.1610       0.10199529       0.30199528       0.10199528       0.10199528       0.74888288E-01   0.72236552E-02
  7714.4700       0.12690700       0.32690699       0.12690699       0.12690699       0.67317074E-01  -0.47893734E-01
  7714.7770       0.14346261       0.34346260       0.14346260       0.14346260       0.45385748E-01  -0.41361676E-01
  7715.0770       0.15445615       0.35445614       0.15445614       0.15445614       0.42210536E-01   0.85776199E-02
  7715.3860       0.16916882       0.36916882       0.16916882       0.16916882       0.50609519E-01  -0.41807904E-02
  7715.6700       0.18446759       0.38446759       0.18446759       0.18446759       0.39731328E-01  -0.50050529E-01
  7715.9720       0.19245138       0.39245137       0.19245137       0.19245137       0.21279909E-01  -0.23284646E-01
  7716.1370       0.19440531       0.39440530       0.19440530       0.19440530       0.28857398E-01   0.52554386E-01
  7716.2550       0.20061802       0.40061802       0.20061802       0.20061802       0.36152800E-01   0.38334338E-01
  7716.3670       0.20272045       0.40272045       0.20272045       0.20272045       0.37674296E-01   0.14321248
  7716.4990       0.20981055       0.40981054       0.20981054       0.20981054       0.71096646E-01   0.10926246
  7716.6200       0.22070791       0.42070790       0.22070790       0.22070790       0.65317699E-01  -0.42026580E-01
  7716.7330       0.22509489       0.42509489       0.22509489       0.22509489       0.61262426E-01  -0.93064025E-01
  7716.8670       0.23583973       0.43583972       0.23583972       0.23583972       0.42330884E-01  -0.78265572E-01
  7716.9880       0.23588927       0.43588926       0.23588926       0.23588926       0.41304705E-01   0.66707056E-01
  7717.1010       0.24550503       0.44550502       0.24550502       0.24550502       0.57940336E-01  -0.65245909E-01
  7717.2330       0.25008465       0.45008464       0.25008464       0.25008464       0.25319457E-01   0.42107952E-01
  7717.3500       0.25180957       0.45180956       0.25180956       0.25180956       0.68425216E-01   0.23659572
  7717.4620       0.26575403       0.46575402       0.26575402       0.26575402       0.79499877E-01  -0.98064360E-01
  7717.5920       0.27104854       0.47104853       0.27104853       0.27104853       0.44693640E-01   0.63203504E-02
  7717.7100       0.27683805       0.47683804       0.27683804       0.27683804       0.81067324E-01   0.27816347
  7717.8420       0.29131537       0.49131536       0.29131536       0.29131536       0.11423451       0.61940545E-01
  7717.9600       0.30539668       0.50539666       0.30539666       0.30539666       0.96552460E-01  -0.13241210
  7718.0740       0.31371554       0.51371553       0.31371553       0.31371553       0.83514901E-01  -0.36283837E-02
  7718.2060       0.32594134       0.52594133       0.32594133       0.32594133       0.95659878E-01   0.22125924E-01
  7718.3280       0.33801315       0.53801314       0.33801314       0.33801314       0.89134886E-01  -0.11262280
  7718.4410       0.34688804       0.54688803       0.34688803       0.34688803       0.69193519E-01  -0.58376497E-01
  7718.5730       0.35496556       0.55496555       0.35496555       0.35496555       0.74832644E-01   0.19409101
  7718.6930       0.36574587       0.56574585       0.36574585       0.36574585       0.11810445       0.26815724
  7718.8050       0.38236580       0.58236578       0.38236578       0.38236578       0.13704512      -0.70675135E-01
  7718.9360       0.39904783       0.59904782       0.39904782       0.39904782       0.10093040      -0.64145904E-01
  7719.0560       0.40769933       0.60769931       0.40769931       0.40769931       0.12094450       0.11198103
  7719.1680       0.42710695       0.62710694       0.42710694       0.42710694       0.12691000       0.26316680E-01
  7719.2990       0.43853846       0.63853844       0.43853844       0.43853844       0.12733946       0.24575484
  7719.4200       0.45919650       0.65919648       0.45919648       0.45919648       0.18884022       0.15971257
  7719.5350       0.48310475       0.68310473       0.48310473       0.48310473       0.16503162      -0.25131706
  7719.6660       0.49979428       0.69979426       0.49979426       0.49979426       0.12701622      -0.10973567
  7719.7880       0.51523985       0.71523983       0.51523983       0.51523983       0.13726850       0.11952809
  7719.9010       0.53205237       0.73205236       0.53205236       0.53205236       0.15510532       0.25325414
  7720.0340       0.55339576       0.75339574       0.55339574       0.55339574       0.19956902       0.25139114
  7720.1540       0.58254334       0.78254332       0.58254332       0.58254332       0.21870728       0.26784156E-01
  7720.2670       0.60435456       0.80435453       0.60435453       0.60435453       0.20580973      -0.19788977
  7720.3970       0.63255510       0.83255508       0.63255508       0.63255508       0.17062007      -0.17887648
  7720.5160       0.64683895       0.84683893       0.64683893       0.64683893       0.16126948       0.16522710E-01
  7720.6460       0.67271120       0.87271118       0.67271118       0.67271118       0.17473422       0.13972403
  7720.7660       0.69052251       0.89052248       0.69052248       0.69052248       0.19620049       0.28734367
  7720.8790       0.71842591       0.91842589       0.71842589       0.71842589       0.24168530       0.48694531E-01
  7721.0130       0.75021878       0.95021875       0.75021875       0.75021875       0.20822804      -0.29741930
  7721.1330       0.77131584       0.97131581       0.77131581       0.77131581       0.16614080      -0.58831278E-01
  7721.2460       0.78892958       0.98892955       0.78892955       0.78892955       0.19452035       0.27688274
  7721.3790       0.81916784        1.0191678       0.81916781       0.81916781       0.23425395       0.24715966
  7721.5000       0.84843008        1.0484301       0.84836798       0.84836798       0.25729890       0.59219584E-01
  7721.6120       0.87911849        2.2577712       0.87923029        2.0578830       0.24805211      -0.14691145
  7721.7440       0.90895480        2.2404257       0.90927158        2.0407425       0.22145251       0.38676026E-01
  7721.8620       0.93448161        2.2250553       0.93498163        2.0255554       0.25772112      -0.46686891E-01
  7721.9740       0.96823066        2.2105842       0.96890459        2.0112582       0.21071453      -0.37842839
  7722.1040       0.98547453        2.1939305       0.98635033        1.9948064       0.16614145       0.72187118E-02
  7722.2260        1.0100983        2.1784411        1.0111635        1.9795064       0.21253364       0.16322541
  7722.3580        1.0394581        2.1618333        1.0407283        1.9631035       0.20760070      -0.14919251
  7722.4790        1.0626213        2.1467470        1.0640794        1.9482052       0.17478794      -0.24827505
  7722.5930        1.0805332        2.1326534        1.0821684        1.9342886       0.14925607      -0.25686218
  7722.7240        1.0991890        2.1166011        1.1010276        1.9184396       0.11185670      -0.12292983
  7722.8460        1.1088330        2.1017885        1.1108610        1.9038165       0.11815482       0.22227620
  7722.9580        1.1268372        2.0883058        1.1290391        1.8905077       0.16386933       0.23271397
  7723.0510        1.1424262        2.0771942        1.1447725        1.8795406       0.16586118      -0.13529085
  7723.2130        1.1691318        2.0580196        1.1717297        1.8606175       0.12937017      -0.14816964
  7723.4060        1.1883526        2.0354742        1.1912502        1.8383719       0.11326096      -0.12632594E-01
  7723.6030        1.2133036        2.0127942        1.2165071        1.8159977       0.12444345      -0.20424238E-01
  7723.8000        1.2373833        1.9904478        1.2408927        1.7939572       0.10521381      -0.15344033
  7724.0000        1.2550735        1.9680999        1.2588935        1.7719199       0.63527645E-01  -0.22837435
  7724.1980        1.2626673        1.9463093        1.2667947        1.7504368       0.14320821E-01  -0.14558668
  7724.3960        1.2607445        1.9248484        1.2651794        1.7292833       0.58753208E-02   0.56122617E-02
  7724.5920        1.2649822        1.9039267        1.2697214        1.7086660       0.16532052E-01  -0.40832582E-01
  7724.7890        1.2672416        1.8832190        1.2722868        1.6882642      -0.10171884E-01  -0.12338396
  7725.0080        1.2607507        1.8605734        1.2661359        1.6659586      -0.34795677E-01  -0.31448731E-01
  7725.7230        1.2347425        1.7893455        1.2412380        1.5958410      -0.39544999E-01  -0.64728467E-02
  7726.5070        1.2014728        1.7159017        1.2091856        1.5236147      -0.44498475E-01   0.62190598E-03
  7727.3020        1.1644794        1.6462528        1.1734268        1.4552002      -0.38563009E-01   0.54431248E-02
  7728.0660        1.1413530        1.5837528        1.1514868        1.3938866      -0.36012643E-01   0.61075016E-02
  7728.8300        1.1094521        1.5254565        1.1207722        1.3367767      -0.29230747E-01   0.16957837E-01
  7729.5930        1.0967177        1.4712931        1.1092226        1.2837981      -0.10118026E-01   0.17931202E-01
  7730.3530        1.0940423        1.4212348        1.1077274        1.2349199      -0.19215268E-02   0.53217451E-02
  7731.1470        1.0937316        1.3729372        1.1086496        1.1878553      -0.18480337E-02   0.17276077E-02
  7731.9100        1.0911649        1.3302335        1.1072678        1.1463363       0.76835838E-03  -0.40651820E-02
  7732.6790        1.0949087        1.2907285        1.1122057        1.1080255      -0.80758925E-02  -0.71097622E-02
  7733.4410        1.0788007        1.2549439        1.0972809        1.0734241      -0.10116688E-01   0.56118438E-02
  7734.2140        1.0793796        1.2219186        1.0990602        1.0415992       0.53828777E-03  -0.60070411E-03
  7734.9760        1.0796270        1.1924526        1.1004908        1.0133165      -0.11038768E-01  -0.10948999E-01
  7735.7750        1.0621481        1.1646986        1.0842526       0.98680312      -0.16553099E-01   0.63462409E-02
  7736.5390        1.0537545        1.1410246        1.0770454       0.96431550      -0.11195938E-02   0.69819487E-02
  7737.3090        1.0604307        1.1198544        1.0849172       0.94434103      -0.58427896E-02  -0.12770766E-01
  7738.0780        1.0447625        1.1012649        1.0704431       0.92694561      -0.20773802E-01  -0.77702991E-02
  7738.8440        1.0285429        1.0851433        1.0554130       0.91201348      -0.17770199E-01   0.60441841E-02
  7739.6160        1.0174319        1.0711717        1.0455008       0.89924069      -0.11477847E-01   0.19043333E-02
  7740.3880        1.0108211        1.0593419        1.0400888       0.88860969      -0.14829908E-01  -0.55335405E-02
  7741.1610       0.99451969        1.0494987        1.0249877       0.87996682      -0.20027167E-01  -0.56386291E-02
  7741.9520       0.97949858        1.0413496        1.0111949       0.87304593      -0.23648724E-01  -0.50444737E-03
  7744.4520       0.91669174        1.0266432       0.95227015       0.86222161      -0.21687303E-01   0.14717149E-02
  7746.9690       0.87069338        1.0249772       0.91018027       0.86446415      -0.16265131E-01   0.17985908E-02
  7749.4530       0.83534982        1.0314083       0.87869393       0.87475249      -0.12692551E-01   0.10830939E-02
  7751.9350       0.80766217        1.0410465       0.85486041       0.88824474      -0.10886486E-01   0.95770830E-03
  7754.4550       0.78089561        1.0504311       0.83200698       0.90154245      -0.79020940E-02   0.20637909E-02
  7756.9490       0.76804107        1.0588339       0.82302520       0.91381803      -0.53863891E-03   0.26476112E-02
  7759.4300       0.77821589        1.0663451       0.83705257       0.92518185       0.52697717E-02   0.16046805E-02
  7761.9470       0.79437939        1.0731275       0.85712455       0.93587269       0.74815542E-02   0.12159084E-02
  7764.4680       0.81590796        1.0791013       0.88256779       0.94576114       0.11395518E-01   0.68504559E-03
  7766.9650       0.85156211        1.0842360       0.92209936       0.95477331       0.10919113E-01  -0.10095069E-03
  7769.4620       0.87043801        1.0886184       0.94485267       0.96303314       0.10891371E-01  -0.18288478E-04
  7771.9870       0.90625857        1.0923114       0.98459412       0.97064702       0.10827268E-01  -0.11313006E-02
  7774.4880       0.92485586        1.0952635        1.0070750       0.97748267       0.52054537E-02  -0.17235956E-02
  7776.9970       0.93233789        1.0975454        1.0184531       0.98366064       0.21920542E-02  -0.69806170E-03
  7780.5620       0.93817039        1.0996687        1.0298215       0.99131979       0.96542689E-03  -0.86523063E-03
  7784.1490       0.93924262        1.1005482        1.0364637       0.99776930      -0.39960753E-02  -0.62149065E-03
  7787.6930       0.90967438        1.1002541        1.0123987        1.0029784      -0.34664229E-02   0.65910587E-03
  7791.2820       0.91451663        1.0988543        1.0228140        1.0071517       0.70532686E-03   0.30845085E-03
  7794.8620       0.91473087        1.0964296        1.0285874        1.0102862      -0.12551388E-02  -0.59742659E-03
  7798.4360       0.90553737        1.0930609        1.0249437        1.0124673      -0.35686630E-02  -0.28242747E-03
  7802.0150       0.88920422        1.0888144        1.0141681        1.0137784      -0.32753425E-02   0.51422502E-04
  7805.6140       0.88202696        1.0837404        1.0125795        1.0142930      -0.31995523E-02   0.10011792E-03
  7809.2040       0.86620264        1.0779533        1.0023298        1.0140806      -0.25555948E-02   0.45648095E-03
  7812.8090       0.86363945        1.0714904        1.0053646        1.0132156       0.84828194E-04  -0.30498246E-04
  7816.3810       0.86681145        1.0645192        1.0140833        1.0117911      -0.27744807E-02  -0.51291260E-03
  7819.9940       0.84370481        1.0569713       0.99658702        1.0098536      -0.36004489E-02   0.54748115E-04
  7823.6050       0.84080181        1.0490067       0.99929128        1.0074962      -0.23789803E-02  -0.12241926E-03
  7827.2230       0.82650716        1.0406834       0.99061477        1.0047910      -0.44854177E-02   0.32467999E-04
  7830.8140       0.80846643        1.0321603       0.97815025        1.0018442      -0.21449185E-02   0.76463688E-03
  7834.4380       0.81103158        1.0233731       0.98634284       0.99868436       0.10314374E-02  -0.10419879E-03
  7838.0600       0.81594023        1.0144832       0.99687584       0.99541880      -0.28999429E-02  -0.39319708E-03
  7841.6900       0.79000119        1.0055453       0.97657357       0.99211772      -0.18200279E-02   0.88231790E-03
  7845.3200       0.80272683       0.99665882       0.99493597       0.98886800       0.35056850E-02   0.14671385E-02
