# XDI/1.0 Athena/0.9.26
# Element.edge:                  K
# Element.symbol:                Co
# Column.1:                      energy eV
# Column.2:                      norm
# Column.3:                      nbkg
# Column.4:                      flat
# Column.5:                      fbkg
# Column.6:                      nder
# Column.7:                      nsec
# Athena.e0:                     7721.54
# Athena.eshift:                 0
# Athena.rbkg:                   1.0
# Athena.importance:             1
# Athena.standard:               None
# Athena.bkg_kweight:            3
# Athena.edge_step:              1.1946414
# Athena.fixed_step:             no
# Athena.pre_edge_range:         -82.964 -19.904
# Athena.pre_edge_line:          0.175506 + 0.000191795 * E
# Athena.normalization_range:    45 125.256
# Athena.post_edge_polynomial:   15.689301 - 0.00166265 * E + 0 * E^2 + 0 * E^3
# Athena.spline_range_energy:    0.000 125.180
# Athena.clamps:                 0 24
# Athena.spline_range_k:         0.000 5.732
# Athena.kweight:                2
# Athena.window:                 hanning
# Athena.phase_correction:       no
# Athena.k_range:                .4 5.35
# Athena.dk:                     .5
# Athena.r_range:                .4 5.1
# Athena.dr:                     .5
# Athena.window:                 hanning
# Athena.plot_multiplier:        1
# Athena.y_offset:               0.2
# ///
#------------------------
#   e         norm        nbkg        flat        fbkg        nder        nsec
  7600.0670      -0.21524393      -0.15243937E-01  -0.21524394      -0.21524394       0.12223211E-01  -0.51269421E-03
  7610.6410      -0.85995698E-01   0.11400430      -0.85995700E-01  -0.85995700E-01   0.68019825E-02  -0.37910168E-03
  7624.5560      -0.48670183E-01   0.15132982      -0.48670184E-01  -0.48670184E-01   0.29393901E-02  -0.20518016E-03
  7637.2000      -0.79284356E-02   0.19207156      -0.79284358E-02  -0.79284357E-02   0.13526026E-02  -0.13112299E-03
  7649.6990      -0.14661695E-01   0.18533830      -0.14661695E-01  -0.14661695E-01  -0.35743513E-03   0.95194714E-04
  7662.1990      -0.16863956E-01   0.18313604      -0.16863957E-01  -0.16863957E-01   0.37323753E-02   0.23916309E-04
  7674.7330       0.78774587E-01   0.27877459       0.78774589E-01   0.78774589E-01   0.24128575E-03  -0.28630628E-03
  7687.3310      -0.10799963E-01   0.18920004      -0.10799963E-01  -0.10799963E-01  -0.34630742E-02   0.39699234E-05
  7700.0100      -0.87615387E-02   0.19123846      -0.87615388E-02  -0.87615388E-02   0.34163351E-03   0.95690541E-03
  7700.3880      -0.63392542E-02   0.19366075      -0.63392543E-02  -0.63392543E-02   0.90312398E-02   0.54423214E-02
  7700.7190      -0.23583896E-02   0.19764161      -0.23583897E-02  -0.23583897E-02   0.42002394E-02  -0.21348673E-01
  7701.0710      -0.34704907E-02   0.19652951      -0.34704908E-02  -0.34704908E-02  -0.55499039E-02  -0.16301819E-02
  7701.4340      -0.63265709E-02   0.19367343      -0.63265710E-02  -0.63265710E-02   0.30346593E-02   0.16202980E-01
  7701.7980      -0.12642934E-02   0.19873571      -0.12642934E-02  -0.12642934E-02   0.62296625E-02  -0.10447678E-01
  7702.1550      -0.18349842E-02   0.19816502      -0.18349843E-02  -0.18349843E-02  -0.44981166E-02  -0.17010993E-01
  7702.5150      -0.44894429E-02   0.19551056      -0.44894430E-02  -0.44894430E-02  -0.59672195E-02   0.25182183E-02
  7702.8790      -0.61552512E-02   0.19384475      -0.61552513E-02  -0.61552513E-02  -0.26749266E-02   0.72638937E-02
  7703.2420      -0.64341145E-02   0.19356589      -0.64341147E-02  -0.64341147E-02  -0.68636881E-03   0.75060921E-02
  7703.6000      -0.66501231E-02   0.19334988      -0.66501232E-02  -0.66501232E-02   0.27369658E-02   0.11818081E-01
  7703.9610      -0.44662361E-02   0.19553376      -0.44662362E-02  -0.44662362E-02   0.78108312E-02   0.20386300E-02
  7704.3250      -0.98727047E-03   0.19901273      -0.98727049E-03  -0.98727048E-03   0.42149726E-02  -0.13545985E-01
  7704.6870      -0.14061660E-02   0.19859383      -0.14061660E-02  -0.14061660E-02  -0.20235539E-02  -0.11134612E-01
  7705.0200      -0.23936404E-02   0.19760636      -0.23936405E-02  -0.23936405E-02  -0.35235827E-02   0.27820166E-02
  7705.3810      -0.38515324E-02   0.19614847      -0.38515325E-02  -0.38515325E-02  -0.92834361E-04   0.26998154E-01
  7705.7490      -0.24613167E-02   0.19753868      -0.24613167E-02  -0.24613167E-02   0.16158072E-01   0.35052034E-01
  7706.1120       0.79600181E-02   0.20796002       0.79600183E-02   0.79600183E-02   0.25530202E-01   0.17820371E-01
  7706.4710       0.15971489E-01   0.21597149       0.15971490E-01   0.15971490E-01   0.29024380E-01   0.89677005E-02
  7706.8310       0.28828547E-01   0.22882855       0.28828548E-01   0.28828548E-01   0.31977979E-01  -0.24333808E-02
  7707.1960       0.39155524E-01   0.23915553       0.39155525E-01   0.39155525E-01   0.27260178E-01  -0.20809728E-01
  7707.5570       0.48619437E-01   0.24861944       0.48619438E-01   0.48619438E-01   0.16870117E-01  -0.32979977E-01
  7707.9150       0.51285138E-01   0.25128514       0.51285139E-01   0.51285139E-01   0.35475750E-02  -0.18783570E-01
  7708.2800       0.51184333E-01   0.25118433       0.51184334E-01   0.51184334E-01   0.32895956E-02  -0.55806261E-02
  7708.6460       0.53689832E-01   0.25368983       0.53689833E-01   0.53689834E-01  -0.53186265E-03  -0.16616729E-01
  7708.9820       0.50810966E-01   0.25081097       0.50810967E-01   0.50810967E-01  -0.83753480E-02   0.47860885E-02
  7709.2900       0.48296108E-01   0.24829611       0.48296109E-01   0.48296109E-01   0.25503784E-02   0.26784457E-01
  7709.5960       0.52376898E-01   0.25237690       0.52376899E-01   0.52376899E-01   0.80703083E-02  -0.10982295E-01
  7709.9030       0.53243207E-01   0.25324321       0.53243208E-01   0.53243208E-01  -0.41817687E-02  -0.33440267E-01
  7710.2110       0.49805110E-01   0.24980511       0.49805111E-01   0.49805111E-01  -0.12495456E-01  -0.77543723E-02
  7710.5140       0.45608484E-01   0.24560848       0.45608485E-01   0.45608485E-01  -0.89196901E-02   0.14538823E-01
  7710.8230       0.44346260E-01   0.24434626       0.44346261E-01   0.44346261E-01  -0.35976963E-02   0.29509145E-01
  7711.1080       0.43471452E-01   0.24347145       0.43471453E-01   0.43471453E-01   0.86087419E-02   0.19736145E-01
  7711.4160       0.49451244E-01   0.24945125       0.49451245E-01   0.49451245E-01   0.81058375E-02  -0.22481160E-01
  7711.7250       0.48472754E-01   0.24847275       0.48472755E-01   0.48472755E-01  -0.52621339E-02  -0.15239591E-01
  7712.0290       0.46225556E-01   0.24622556       0.46225557E-01   0.46225557E-01  -0.12360315E-02  -0.26092232E-02
  7712.3330       0.47721247E-01   0.24772125       0.47721248E-01   0.47721248E-01  -0.68485416E-02   0.52881649E-02
  7712.6440       0.42013703E-01   0.24201370       0.42013704E-01   0.42013704E-01   0.20161899E-02   0.44569249E-01
  7712.9530       0.48971284E-01   0.24897129       0.48971285E-01   0.48971285E-01   0.20784393E-01   0.42484014E-01
  7713.2350       0.54297279E-01   0.25429728       0.54297280E-01   0.54297280E-01   0.27124242E-01   0.42001246E-01
  7713.5380       0.64838966E-01   0.26483897       0.64838967E-01   0.64838967E-01   0.45355122E-01   0.55871887E-01
  7713.8530       0.82326744E-01   0.28232675       0.82326746E-01   0.82326746E-01   0.61653068E-01   0.46470225E-01
  7714.1610       0.10324883       0.30324883       0.10324883       0.10324883       0.74306072E-01   0.78984642E-02
  7714.4700       0.12817359       0.32817359       0.12817359       0.12817359       0.66526420E-01  -0.48602686E-01
  7714.7770       0.14422910       0.34422911       0.14422911       0.14422911       0.44366818E-01  -0.41794758E-01
  7715.0770       0.15510425       0.35510425       0.15510425       0.15510425       0.41157002E-01   0.90764582E-02
  7715.3860       0.16929372       0.36929372       0.16929372       0.16929372       0.49894381E-01   0.11126986E-03
  7715.6700       0.18469162       0.38469162       0.18469162       0.18469162       0.41222985E-01  -0.40361708E-01
  7715.9720       0.19345039       0.39345039       0.19345039       0.19345039       0.26242420E-01  -0.29351110E-01
  7716.1370       0.19694683       0.39694683       0.19694683       0.19694683       0.27516017E-01  -0.16560710E-01
  7716.2550       0.20123742       0.40123742       0.20123742       0.20123742       0.21555739E-01   0.45211680E-01
  7716.3670       0.20190465       0.40190465       0.20190465       0.20190465       0.37914703E-01   0.24584822
  7716.4990       0.21048861       0.41048861       0.21048861       0.21048861       0.81542703E-01   0.13427531
  7716.6200       0.22253495       0.42253496       0.22253496       0.22253496       0.71886356E-01  -0.11466873
  7716.7330       0.22731001       0.42731002       0.22731002       0.22731002       0.54710220E-01  -0.11156025
  7716.8670       0.23604838       0.43604838       0.23604838       0.23604838       0.44330973E-01  -0.60852828E-01
  7716.9880       0.23861441       0.43861442       0.23861442       0.23861442       0.39192749E-01   0.46715732E-01
  7717.1010       0.24521948       0.44521948       0.24521948       0.24521948       0.55262454E-01  -0.18296825E-01
  7717.2330       0.25215371       0.45215372       0.25215372       0.25215372       0.34710027E-01   0.52914832E-01
  7717.3500       0.25386228       0.45386228       0.25386228       0.25386228       0.68438247E-01   0.20476186
  7717.4620       0.26782607       0.46782608       0.26782608       0.26782608       0.81600492E-01  -0.10851630
  7717.5920       0.27360959       0.47360960       0.27360960       0.27360960       0.42177303E-01   0.12035451E-01
  7717.7100       0.27828604       0.47828605       0.27828605       0.27828605       0.84585284E-01   0.28760192
  7717.8420       0.29475592       0.49475592       0.29475592       0.29475592       0.11407778      -0.77637147E-03
  7717.9600       0.30680549       0.50680549       0.30680549       0.30680549       0.84391191E-01  -0.13908778
  7718.0740       0.31433467       0.51433468       0.31433468       0.31433468       0.81809418E-01   0.10208068
  7718.2060       0.32693060       0.52693061       0.32693061       0.32693061       0.10950304       0.48244303E-01
  7718.3280       0.34214844       0.54214845       0.34214845       0.34214845       0.94063471E-01  -0.20101722
  7718.4410       0.34903552       0.54903553       0.34903553       0.34903553       0.62263991E-01  -0.95571554E-01
  7718.5730       0.35740312       0.55740313       0.35740313       0.35740313       0.70648441E-01   0.17704498
  7718.6930       0.36683893       0.56683894       0.36683894       0.36683894       0.10687933       0.28425117
  7718.8050       0.38219913       0.58219913       0.38219913       0.38219913       0.13659471      -0.85090658E-02
  7718.9360       0.40003144       0.60003145       0.40003145       0.40003145       0.10481162      -0.40735228E-01
  7719.0560       0.40850684       0.60850685       0.40850685       0.40850685       0.12637017       0.10032120
  7719.1680       0.42934932       0.62934933       0.42934933       0.42934933       0.12808614       0.23765727E-01
  7719.2990       0.43963178       0.63963179       0.43963179       0.43963179       0.13214524       0.26485710
  7719.4200       0.46264992       0.66264993       0.46264993       0.46264993       0.19483013       0.85623292E-01
  7719.5350       0.48561169       0.68561170       0.48561170       0.48561170       0.15235234      -0.28796926
  7719.6660       0.50012860       0.70012861       0.50012861       0.50012861       0.12398969       0.11860356E-01
  7719.7880       0.51698108       0.71698109       0.51698109       0.51698109       0.15535301       0.11348672
  7719.9010       0.53663656       0.73663657       0.53663657       0.53663657       0.15065907       0.13497491
  7720.0340       0.55404321       0.75404322       0.55404322       0.55404322       0.18855684       0.29322642
  7720.1540       0.58434144       0.78434145       0.58434145       0.58434145       0.22484536       0.26221935E-01
  7720.2670       0.60643218       0.80643219       0.60643219       0.60643219       0.19466655      -0.20065586
  7720.3970       0.63164541       0.83164542       0.63164542       0.63164542       0.17608598      -0.10767953
  7720.5160       0.65027759       0.85027760       0.65027760       0.65027760       0.16785435      -0.16935349E-01
  7720.6460       0.67344114       0.87344115       0.67344115       0.67344115       0.17186908       0.19132921
  7720.7660       0.69324486       0.89324487       0.69324487       0.69324487       0.21568665       0.27209814
  7720.8790       0.72369613       0.92369614       0.72369614       0.72369614       0.23526795      -0.71043251E-01
  7721.0130       0.75135604       0.95135606       0.75135606       0.75135606       0.19813896      -0.18287866
  7721.1330       0.77402343       0.97402344       0.77402344       0.77402344       0.18881677      -0.43345294E-01
  7721.2460       0.79535035       0.99535037       0.79535037       0.79535037       0.18803951       0.11036626
  7721.3790       0.82028115        1.0202812       0.82028116       0.82028116       0.21596687       0.27720790
  7721.5000       0.85020593        1.0502060       0.85014384       0.85014384       0.25845032       0.14461046
  7721.6120       0.88050007        2.2542067       0.88061183        2.0543185       0.24966111      -0.12361200
  7721.7440       0.91112324        2.2369069       0.91143991        2.0372236       0.22828899       0.34917694E-01
  7721.8620       0.93757232        2.2215770       0.93807216        2.0220768       0.25839053      -0.13207240
  7721.9740       0.97055307        2.2071439       0.97122676        2.0078176       0.19791234      -0.43689712
  7722.1040       0.98546710        2.1905341       0.98634260        1.9914095       0.15266143       0.42928635E-01
  7722.2260        1.0090237        2.1750853        1.0100886        1.9761502       0.20873036       0.24279381
  7722.3580        1.0384846        2.1585212        1.0397544        1.9597910       0.21433106      -0.74183129E-01
  7722.4790        1.0632495        2.1434746        1.0647071        1.9449322       0.18996202      -0.28082262
  7722.5930        1.0831257        2.1294180        1.0847603        1.9310525       0.14833774      -0.39909372
  7722.7240        1.0995922        2.1134078        1.1014302        1.9152457       0.92184063E-01  -0.15169913
  7722.8460        1.1064483        2.0986341        1.1084756        1.9006614       0.10995786       0.38531204
  7722.9580        1.1253224        2.0851868        1.1275236        1.8873880       0.18234708       0.26282961
  7723.0510        1.1438294        2.0741044        1.1461749        1.8764499       0.16383793      -0.22915932
  7723.2130        1.1671011        2.0549801        1.1696981        1.8575770       0.12391145      -0.13490575
  7723.4060        1.1878180        2.0324938        1.1907146        1.8353904       0.11594639      -0.16420042E-02
  7723.6030        1.2123202        2.0098733        1.2155226        1.8130756       0.12327107      -0.33679427E-01
  7723.8000        1.2363868        1.9875854        1.2398950        1.7910936       0.10267669      -0.14709187
  7724.0000        1.2530828        1.9652960        1.2569015        1.7691146       0.64875600E-01  -0.21708403
  7724.1980        1.2622073        1.9435624        1.2663333        1.7476884       0.16277250E-01  -0.15921705
  7724.3960        1.2595286        1.9221577        1.2639620        1.7265910       0.18256495E-02  -0.23908887E-02
  7724.5920        1.2629266        1.9012906        1.2676642        1.7060282       0.15335240E-01  -0.20609293E-01
  7724.7890        1.2655553        1.8806371        1.2705988        1.6856805      -0.62738026E-02  -0.11804424
  7725.0080        1.2603167        1.8580506        1.2657001        1.6634339      -0.33771162E-01  -0.36238640E-01
  7725.7230        1.2340131        1.7870085        1.2405064        1.5935017      -0.40120692E-01  -0.67810627E-02
  7726.5070        1.2001758        1.7137558        1.2078860        1.5214661      -0.43935975E-01   0.89537906E-03
  7727.3020        1.1646382        1.6442877        1.1735825        1.4532320      -0.38706889E-01   0.50411832E-02
  7728.0660        1.1398317        1.5819495        1.1499620        1.3920798      -0.36076771E-01   0.62117219E-02
  7728.8300        1.1095129        1.5238039        1.1208291        1.3351201      -0.29215377E-01   0.16419563E-01
  7729.5930        1.0952198        1.4697800        1.1077205        1.2822806      -0.11004098E-01   0.18125623E-01
  7730.3530        1.0927536        1.4198502        1.1064340        1.2335306      -0.16100533E-02   0.67457885E-02
  7731.1470        1.0927178        1.3716763        1.1076308        1.1865892      -0.52114296E-03   0.10068666E-02
  7731.9100        1.0919422        1.3290815        1.1080396        1.1451788      -0.42362014E-04  -0.55621586E-02
  7732.6790        1.0926529        1.2896770        1.1099440        1.1069680      -0.90423700E-02  -0.61626425E-02
  7733.4410        1.0780983        1.2539831        1.0965723        1.0724570      -0.94773676E-02   0.52243401E-02
  7734.2140        1.0781051        1.2210411        1.0977790        1.0407149      -0.10230079E-02  -0.97773330E-03
  7734.9760        1.0765280        1.1916492        1.0973847        1.0125059      -0.10978188E-01  -0.88686616E-02
  7735.7750        1.0609682        1.1639645        1.0830652       0.98606152      -0.14866989E-01   0.67249948E-02
  7736.5390        1.0532909        1.1403495        1.0765739       0.96363241      -0.46702145E-03   0.60610432E-02
  7737.3090        1.0602518        1.1192317        1.0847300       0.94370995      -0.55693484E-02  -0.13321796E-01
  7738.0780        1.0447197        1.1006880        1.0703916       0.92635989      -0.20969265E-01  -0.81709326E-02
  7738.8440        1.0280640        1.0846058        1.0549250       0.91146681      -0.18111730E-01   0.61986975E-02
  7739.6160        1.0168638        1.0706682        1.0449232       0.89872758      -0.11435669E-01   0.26764947E-02
  7740.3880        1.0104073        1.0588670        1.0396651       0.88812474      -0.13979222E-01  -0.53352425E-02
  7741.1610       0.99526595        1.0490474        1.0257236       0.87950505      -0.19678618E-01  -0.65770503E-02
  7741.9520       0.97962993        1.0409176        1.0113155       0.87260313      -0.24265729E-01  -0.69352894E-03
  7744.4520       0.91540743        1.0262457       0.95097374       0.86181203      -0.21961022E-01   0.16480549E-02
  7746.9690       0.86945149        1.0245844       0.90892494       0.86405788      -0.15997437E-01   0.18526567E-02
  7749.4530       0.83540425        1.0310043       0.87873361       0.87433361      -0.12695886E-01   0.10085725E-02
  7751.9350       0.80640372        1.0406290       0.85358589       0.88781114      -0.10988866E-01   0.98180610E-03
  7754.4550       0.78043794        1.0500081       0.83153191       0.90110205      -0.77848916E-02   0.20378868E-02
  7756.9490       0.76737027        1.0584143       0.82233568       0.91337969      -0.77090177E-03   0.26691166E-02
  7759.4300       0.77660270        1.0659368       0.83541937       0.92475350       0.54939637E-02   0.17536196E-02
  7761.9470       0.79482910        1.0727380       0.85755291       0.93546175       0.79936890E-02   0.10942917E-02
  7764.4680       0.81687491        1.0787371       0.88351207       0.94537421       0.11007005E-01   0.58112974E-03
  7766.9650       0.85006225        1.0839026       0.92057551       0.95441584       0.10909798E-01   0.97506469E-04
  7769.4620       0.87135844        1.0883207       0.94574779       0.96270999       0.11493952E-01  -0.40640247E-04
  7771.9870       0.90778488        1.0920538       0.98609379       0.97036273       0.10705703E-01  -0.13352433E-02
  7774.4880       0.92516530        1.0950490        1.0073565       0.97724020       0.47830193E-02  -0.17272440E-02
  7776.9970       0.93174781        1.0973767        1.0178337       0.98346266       0.20522102E-02  -0.62999554E-03
  7780.5620       0.93763043        1.0995680        1.0292503       0.99118784       0.95642639E-03  -0.83138741E-03
  7784.1490       0.93858817        1.1005171        1.0357762       0.99770504      -0.38938725E-02  -0.59848372E-03
  7787.6930       0.90986322        1.1002907        1.0125526        1.0029800      -0.33113610E-02   0.62529421E-03
  7791.2820       0.91496823        1.0989561        1.0232288        1.0072167       0.56635113E-03   0.28731140E-03
  7794.8620       0.91392339        1.0965909        1.0277412        1.0104087      -0.12516256E-02  -0.53184629E-03
  7798.4360       0.90601410        1.0932736        1.0253798        1.0126393      -0.32384772E-02  -0.31111665E-03
  7802.0150       0.89075857        1.0890684        1.0156800        1.0139898      -0.34770430E-02  -0.29112321E-04
  7805.6140       0.88105589        1.0840233        1.0115640        1.0145314      -0.34474454E-02   0.13477370E-03
  7809.2040       0.86597488        1.0782501        1.0020558        1.0143309      -0.25081549E-02   0.51606668E-03
  7812.8090       0.86300971        1.0717836        1.0046866        1.0134606       0.26565429E-03  -0.54385552E-05
  7816.3810       0.86788148        1.0647895        1.0151032        1.0120113      -0.25471874E-02  -0.56106893E-03
  7819.9940       0.84470817        1.0571964       0.99753838        1.0100266      -0.37656260E-02   0.67998539E-05
  7823.6050       0.84067860        1.0491620       0.99911416        1.0075975      -0.24980653E-02  -0.89396501E-04
  7827.2230       0.82664966        1.0407418       0.99070144        1.0047936      -0.44118733E-02   0.24618823E-04
  7830.8140       0.80887340        1.0320935       0.97849950        1.0017196      -0.23205882E-02   0.73078774E-03
  7834.4380       0.80990661        1.0231482       0.98515825       0.99839986       0.86076022E-03  -0.38123679E-04
  7838.0600       0.81511047        1.0140662       0.99598454       0.99494022      -0.25968324E-02  -0.35534390E-03
  7841.6900       0.79107438        1.0048991       0.97758330       0.99140796      -0.17161938E-02   0.79696376E-03
  7845.3200       0.80265091       0.99574415       0.99479468       0.98788790       0.31891245E-02   0.13513273E-02
