CORRW ASCII
  CorrWare for Windows: Version 3.5f
  Potentiostatic	[0.1 Ref,1 Hour][default]	IV_+100mV_1.cor
  Date: 11-05-2019    Time: 01:10:00
   
   
  Open Circuit Potential (V): 0.0021
  Begin Information:          Cell Information
    Surface Area:             1
    Density:                  0
    Weight:                   0
    Polarity:                 0
    PolarityI:                0
    Corrosion Unit Type:      0
    Reference Type:           0
    Reference Potential:      0
    User-Defined Potential:   0
    Stern-Geary:              26
  End Information:            Cell Information
  Begin Pstat:                1287
    Pstat Title:              Instrument #1
    Booster Type:             0
    Booster Name:             None
    Current Range:            0
    Current Limit:            0
    Current LimitType:        0
    Sweep Type:               0
    Use Error Beep:           1
    Auxilary Type:            0
    iR Comp. Type:            0
    iR Ohms:                  0
    iR Time:                  27
    iR Ratio:                 255
    LP Filter Type:           2
    Drift Correction:         1
    Null Correction:          0
    Pstat Bandwidth Type:     2
    Gstat Bandwidth Type:     2
    External Input:           0
    SafetyMinV:               0
    SafetyMaxV:               10
    SafetyMinI:               0
    SafetyMaxI:               4
    SafetyMinQ:               0
    SafetyMaxQ:               1000
    SafetyMinT:               0
    SafetyMaxT:               50
    SafetyChT:                0
    SafetyMinVUse:            0
    SafetyMaxVUse:            0
    SafetyMinIUse:            0
    SafetyMaxIUse:            0
    SafetyMinQUse:            0
    SafetyMaxQUse:            0
    SafetyMinTUse:            0
    SafetyMaxTUse:            0
  End Pstat:                  1287
  Begin Experiment:           Potentiostatic	[0.1 Ref,1 Hour][default]	IV_+100mV_1.cor
    Data File:                Z:\191101_Amezawa\fr_XAS\TPB2\100% O2\Electrochem\IV_+100mV_1.cor
    Data Append:              0
    Comment Lines:            0
    Potential:                0.1
    Potential Type:           1
    Total Time:               1
    Time Units:               2
    Time Marker:              -1
    Measure Rate Type:        1
    Measure Rate #1:          2000
    Measure Rate #2:          600
    Measure Rate #3:          0.1
    Measure Rate #4:          2
    Use Threshold:            0
    Threshold I_Min:          -15
    Threshold I_Max:          15
    Threshold Delta:          5
    Threshold Time:           60
    Copy AuxV:                0
    Axes Type:                1
    Use Custom Pstat:         0
  End Experiment:             Potentiostatic	[0.1 Ref,1 Hour][default]	IV_+100mV_1.cor
  Data Points:                99
  E(Volts)	I(A/cm2)	T(Seconds)
End Comments
1.001413E-01	1.600170E-04	0.000000E+00
1.001398E-01	1.546104E-04	8.900000E-01
1.001413E-01	1.532818E-04	1.330000E+00
1.001383E-01	1.523986E-04	1.760000E+00
1.001406E-01	1.516690E-04	2.210000E+00
1.001390E-01	1.511238E-04	2.650000E+00
1.001406E-01	1.506476E-04	3.100000E+00
1.001421E-01	1.502943E-04	3.540000E+00
1.001421E-01	1.499795E-04	3.990000E+00
1.001421E-01	1.496877E-04	4.430000E+00
1.001406E-01	1.494649E-04	4.880000E+00
1.001406E-01	1.492653E-04	5.320000E+00
1.001390E-01	1.490886E-04	5.750000E+00
1.001421E-01	1.489197E-04	6.200000E+00
1.001406E-01	1.487814E-04	6.640000E+00
1.001413E-01	1.486586E-04	7.090000E+00
1.001406E-01	1.485357E-04	7.530000E+00
1.001390E-01	1.484128E-04	7.980000E+00
1.001398E-01	1.483206E-04	8.420000E+00
1.001413E-01	1.482285E-04	8.870000E+00
1.001421E-01	1.481594E-04	9.310000E+00
1.001413E-01	1.480519E-04	9.750000E+00
1.001406E-01	1.479213E-04	1.063000E+01
1.001413E-01	1.478445E-04	1.108000E+01
1.001421E-01	1.477907E-04	1.152000E+01
1.001406E-01	1.477062E-04	1.197000E+01
1.001429E-01	1.476602E-04	1.241000E+01
1.001406E-01	1.476602E-04	1.284000E+01
1.001421E-01	1.476218E-04	1.329000E+01
1.001398E-01	1.475219E-04	1.373000E+01
1.001406E-01	1.474682E-04	1.418000E+01
1.001406E-01	1.474067E-04	1.462000E+01
1.001421E-01	1.473684E-04	1.507000E+01
1.001413E-01	1.473760E-04	1.551000E+01
1.001406E-01	1.473453E-04	1.595000E+01
1.001421E-01	1.473069E-04	1.639000E+01
1.001413E-01	1.473146E-04	1.683000E+01
1.001436E-01	1.473146E-04	1.728000E+01
1.001398E-01	1.472224E-04	1.772000E+01
1.001406E-01	1.472224E-04	1.817000E+01
1.001413E-01	1.471533E-04	1.861000E+01
1.001421E-01	1.471763E-04	1.905000E+01
1.001421E-01	1.470995E-04	1.949000E+01
1.001406E-01	1.471072E-04	1.994000E+01
1.001398E-01	1.470688E-04	2.081000E+01
1.001406E-01	1.470688E-04	2.126000E+01
1.001398E-01	1.470535E-04	2.170000E+01
1.001406E-01	1.470304E-04	2.215000E+01
1.001398E-01	1.470611E-04	2.259000E+01
1.001398E-01	1.469997E-04	2.304000E+01
1.001406E-01	1.469383E-04	2.348000E+01
1.001398E-01	1.468999E-04	2.393000E+01
1.001429E-01	1.469076E-04	2.437000E+01
1.001406E-01	1.469229E-04	2.480000E+01
1.001413E-01	1.468384E-04	2.525000E+01
1.001398E-01	1.468615E-04	2.569000E+01
1.001406E-01	1.468461E-04	2.614000E+01
1.001413E-01	1.468615E-04	2.658000E+01
1.001406E-01	1.468077E-04	2.703000E+01
1.001421E-01	1.467693E-04	2.747000E+01
1.001398E-01	1.467847E-04	2.792000E+01
1.001421E-01	1.468077E-04	2.836000E+01
1.001413E-01	1.467924E-04	2.879000E+01
1.001383E-01	1.467693E-04	2.924000E+01
1.001413E-01	1.466925E-04	2.968000E+01
1.001390E-01	1.466695E-04	3.057000E+01
1.001413E-01	1.466772E-04	3.102000E+01
1.001421E-01	1.465850E-04	3.145000E+01
1.001398E-01	1.466157E-04	3.190000E+01
1.001413E-01	1.466080E-04	3.234000E+01
1.001406E-01	1.465466E-04	3.278000E+01
1.001406E-01	1.465389E-04	3.323000E+01
1.001406E-01	1.465543E-04	3.367000E+01
1.001406E-01	1.465927E-04	3.412000E+01
1.001413E-01	1.465313E-04	3.455000E+01
1.001398E-01	1.465313E-04	3.500000E+01
1.001406E-01	1.465159E-04	3.544000E+01
1.001398E-01	1.464775E-04	3.589000E+01
1.001436E-01	1.464237E-04	3.632000E+01
1.001398E-01	1.464468E-04	3.676000E+01
1.001413E-01	1.464237E-04	3.721000E+01
1.001413E-01	1.464314E-04	3.765000E+01
1.001413E-01	1.463700E-04	3.810000E+01
1.001413E-01	1.464084E-04	3.853000E+01
1.001421E-01	1.463469E-04	3.898000E+01
1.001421E-01	1.463316E-04	3.942000E+01
1.001413E-01	1.463469E-04	3.987000E+01
1.001398E-01	1.462701E-04	4.075000E+01
1.001413E-01	1.462701E-04	4.120000E+01
1.001421E-01	1.462778E-04	4.163000E+01
1.001413E-01	1.462317E-04	4.208000E+01
1.001421E-01	1.462624E-04	4.253000E+01
1.001421E-01	1.462240E-04	4.298000E+01
1.001413E-01	1.462087E-04	4.341000E+01
1.001398E-01	1.461933E-04	4.386000E+01
1.001421E-01	1.461933E-04	4.430000E+01
1.001398E-01	1.460935E-04	4.473000E+01
1.001421E-01	1.460858E-04	4.518000E+01
1.001413E-01	1.461319E-04	4.562000E+01
