# XDI/1.0 Athena/0.9.26
# Element.edge:                  K
# Element.symbol:                Co
# Column.1:                      energy eV
# Column.2:                      norm
# Column.3:                      nbkg
# Column.4:                      flat
# Column.5:                      fbkg
# Column.6:                      nder
# Column.7:                      nsec
# Athena.e0:                     7721.54
# Athena.eshift:                 0
# Athena.rbkg:                   1.0
# Athena.importance:             1
# Athena.standard:               None
# Athena.bkg_kweight:            3
# Athena.edge_step:              1.1925837
# Athena.fixed_step:             no
# Athena.pre_edge_range:         -82.964 -19.904
# Athena.pre_edge_line:          -0.000159 + 0.000214679 * E
# Athena.normalization_range:    45 125.256
# Athena.post_edge_polynomial:   15.553091 - 0.00164514 * E + 0 * E^2 + 0 * E^3
# Athena.spline_range_energy:    0.000 125.180
# Athena.clamps:                 0 24
# Athena.spline_range_k:         0.000 5.732
# Athena.kweight:                2
# Athena.window:                 hanning
# Athena.phase_correction:       no
# Athena.k_range:                .4 5.35
# Athena.dk:                     .5
# Athena.r_range:                .4 5.1
# Athena.dr:                     .5
# Athena.window:                 hanning
# Athena.plot_multiplier:        1
# Athena.y_offset:               0.2
# ///
#------------------------
#   e         norm        nbkg        flat        fbkg        nder        nsec
  7600.0670      -0.21241805      -0.12418054E-01  -0.21241805      -0.21241805       0.12170489E-01  -0.50791504E-03
  7610.6410      -0.83727299E-01   0.11627270      -0.83727300E-01  -0.83727300E-01   0.67997955E-02  -0.38030090E-03
  7624.5560      -0.45897859E-01   0.15410214      -0.45897860E-01  -0.45897860E-01   0.28573005E-02  -0.21171819E-03
  7637.2000      -0.78402540E-02   0.19215975      -0.78402541E-02  -0.78402541E-02   0.11767722E-02  -0.12537314E-03
  7649.6990      -0.16310277E-01   0.18368972      -0.16310277E-01  -0.16310277E-01  -0.29495620E-03   0.10575555E-03
  7662.1990      -0.15213864E-01   0.18478614      -0.15213864E-01  -0.15213864E-01   0.38205551E-02   0.18647914E-04
  7674.7330       0.79333499E-01   0.27933350       0.79333500E-01   0.79333500E-01   0.17187568E-03  -0.29040692E-03
  7687.3310      -0.10894284E-01   0.18910572      -0.10894284E-01  -0.10894284E-01  -0.34779516E-02   0.86003639E-05
  7700.0100      -0.85786847E-02   0.19142132      -0.85786848E-02  -0.85786848E-02   0.38926708E-03   0.95351880E-03
  7700.3880      -0.58116241E-02   0.19418838      -0.58116241E-02  -0.58116241E-02   0.89721433E-02   0.47837722E-02
  7700.7190      -0.22174351E-02   0.19778256      -0.22174351E-02  -0.22174351E-02   0.37809616E-02  -0.23292939E-01
  7701.0710      -0.32292273E-02   0.19677077      -0.32292273E-02  -0.32292274E-02  -0.69369342E-02  -0.30396733E-02
  7701.4340      -0.71773430E-02   0.19282266      -0.71773430E-02  -0.71773431E-02   0.16075952E-02   0.20665909E-01
  7701.7980      -0.20605056E-02   0.19793949      -0.20605056E-02  -0.20605056E-02   0.80871820E-02  -0.57399969E-02
  7702.1550      -0.13464848E-02   0.19865352      -0.13464848E-02  -0.13464848E-02  -0.25309426E-02  -0.20468717E-01
  7702.5150      -0.38751914E-02   0.19612481      -0.38751915E-02  -0.38751915E-02  -0.65888879E-02  -0.14287767E-02
  7702.8790      -0.61168396E-02   0.19388316      -0.61168397E-02  -0.61168397E-02  -0.35653769E-02   0.77236123E-02
  7703.2420      -0.64672204E-02   0.19353278      -0.64672205E-02  -0.64672205E-02  -0.97382182E-03   0.80379593E-02
  7703.6000      -0.68189652E-02   0.19318103      -0.68189652E-02  -0.68189652E-02   0.22299918E-02   0.12347998E-01
  7703.9610      -0.48638563E-02   0.19513614      -0.48638564E-02  -0.48638564E-02   0.79043887E-02   0.46696580E-02
  7704.3250      -0.10882833E-02   0.19891172      -0.10882833E-02  -0.10882833E-02   0.56154938E-02  -0.13381318E-01
  7704.6870      -0.78700783E-03   0.19921299      -0.78700784E-03  -0.78700785E-03  -0.18104478E-02  -0.13633137E-01
  7705.0200      -0.23465445E-02   0.19765346      -0.23465446E-02  -0.23465446E-02  -0.38595363E-02   0.16699022E-02
  7705.3810      -0.34655260E-02   0.19653447      -0.34655260E-02  -0.34655260E-02  -0.65153568E-03   0.27488825E-01
  7705.7490      -0.28215140E-02   0.19717849      -0.28215141E-02  -0.28215141E-02   0.16179817E-01   0.36472069E-01
  7706.1120       0.83619202E-02   0.20836192       0.83619203E-02   0.83619203E-02   0.26009547E-01   0.18785805E-01
  7706.4710       0.15957379E-01   0.21595738       0.15957379E-01   0.15957379E-01   0.29743168E-01   0.93510636E-02
  7706.8310       0.29747258E-01   0.22974726       0.29747259E-01   0.29747259E-01   0.32732962E-01  -0.35679985E-02
  7707.1960       0.39688776E-01   0.23968878       0.39688777E-01   0.39688777E-01   0.27156370E-01  -0.21527771E-01
  7707.5570       0.49462783E-01   0.24946278       0.49462783E-01   0.49462783E-01   0.17103800E-01  -0.33186799E-01
  7707.9150       0.51986408E-01   0.25198641       0.51986409E-01   0.51986409E-01   0.32950613E-02  -0.21933978E-01
  7708.2800       0.51845112E-01   0.25184511       0.51845112E-01   0.51845112E-01   0.12455337E-02  -0.83810369E-02
  7708.6460       0.52896894E-01   0.25289689       0.52896894E-01   0.52896894E-01  -0.28314766E-02  -0.12557114E-01
  7708.9820       0.49857415E-01   0.24985742       0.49857416E-01   0.49857416E-01  -0.75695602E-02   0.89504961E-02
  7709.2900       0.48022097E-01   0.24802210       0.48022097E-01   0.48022097E-01   0.29326429E-02   0.24026976E-01
  7709.5960       0.51658058E-01   0.25165806       0.51658059E-01   0.51658059E-01   0.71830031E-02  -0.11094269E-01
  7709.9030       0.52425278E-01   0.25242528       0.52425278E-01   0.52425278E-01  -0.38681439E-02  -0.32955254E-01
  7710.2110       0.49279150E-01   0.24927915       0.49279150E-01   0.49279150E-01  -0.13084478E-01  -0.63609276E-02
  7710.5140       0.44430662E-01   0.24443066       0.44430662E-01   0.44430662E-01  -0.77546707E-02   0.20049556E-01
  7710.8230       0.44533291E-01   0.24453329       0.44533292E-01   0.44533292E-01  -0.81414956E-03   0.31891703E-01
  7711.1080       0.43947057E-01   0.24394706       0.43947057E-01   0.43947057E-01   0.11189001E-01   0.17354310E-01
  7711.4160       0.51168369E-01   0.25116837       0.51168369E-01   0.51168369E-01   0.94769561E-02  -0.22690474E-01
  7711.7250       0.49794339E-01   0.24979434       0.49794339E-01   0.49794339E-01  -0.28110217E-02  -0.16892407E-01
  7712.0290       0.49445212E-01   0.24944521       0.49445213E-01   0.49445213E-01  -0.87808958E-03  -0.62012177E-02
  7712.3330       0.49260460E-01   0.24926046       0.49260461E-01   0.49260461E-01  -0.65813621E-02   0.12611820E-01
  7712.6440       0.45397675E-01   0.24539768       0.45397675E-01   0.45397675E-01   0.68781796E-02   0.44375900E-01
  7712.9530       0.53524932E-01   0.25352493       0.53524932E-01   0.53524932E-01   0.20931696E-01   0.35284670E-01
  7713.2350       0.57768307E-01   0.25776831       0.57768308E-01   0.57768308E-01   0.27731419E-01   0.44376471E-01
  7713.5380       0.69747812E-01   0.26974781       0.69747813E-01   0.69747813E-01   0.46891932E-01   0.60944895E-01
  7713.8530       0.86747521E-01   0.28674752       0.86747522E-01   0.86747522E-01   0.65395364E-01   0.45325722E-01
  7714.1610       0.11048912       0.31048913       0.11048913       0.11048913       0.75129857E-01   0.18268430E-02
  7714.4700       0.13310264       0.33310264       0.13310264       0.13310264       0.66522526E-01  -0.38951681E-01
  7714.7770       0.15146700       0.35146700       0.15146700       0.15146700       0.51135621E-01  -0.47033957E-01
  7715.0770       0.16414196       0.36414197       0.16414197       0.16414197       0.37972915E-01  -0.69990774E-02
  7715.3860       0.17459251       0.37459251       0.17459251       0.17459251       0.46873183E-01   0.18876633E-01
  7715.6700       0.19193776       0.39193776       0.19193776       0.19193776       0.49166758E-01  -0.28978017E-01
  7715.9720       0.20340423       0.40340423       0.20340423       0.20340423       0.29892065E-01  -0.72775338E-01
  7716.1370       0.20589736       0.40589736       0.20589736       0.20589736       0.15180675E-01  -0.90269293E-02
  7716.2550       0.20770036       0.40770036       0.20770036       0.20770036       0.27337444E-01   0.18643639
  7716.3670       0.21218497       0.41218497       0.21218497       0.21218497       0.58061046E-01   0.17780208
  7716.4990       0.22186725       0.42186725       0.22186725       0.22186725       0.70721152E-01   0.50945657E-02
  7716.6200       0.23007742       0.43007742       0.23007742       0.23007742       0.59349971E-01  -0.70094733E-01
  7716.7330       0.23575514       0.43575515       0.23575515       0.23575515       0.54318985E-01  -0.35787079E-02
  7716.8670       0.24349421       0.44349421       0.24349421       0.24349421       0.58466030E-01  -0.44624148E-01
  7716.9880       0.25066398       0.45066398       0.25066398       0.25066398       0.42939827E-01  -0.89823209E-01
  7717.1010       0.25354213       0.45354213       0.25354213       0.25354213       0.37447399E-01   0.80000058E-01
  7717.2330       0.25983860       0.45983860       0.25983860       0.25983860       0.62539841E-01   0.21590737
  7717.3500       0.26911455       0.46911455       0.26911455       0.26911455       0.91208335E-01  -0.91745156E-02
  7717.4620       0.28072530       0.48072531       0.28072531       0.28072531       0.60438877E-01  -0.19309982
  7717.5920       0.28374076       0.48374076       0.28374076       0.28374076       0.44478178E-01   0.15524703
  7717.7100       0.29175589       0.49175589       0.29175589       0.29175589       0.98940141E-01   0.21562197
  7717.8420       0.30847579       0.50847580       0.30847580       0.30847580       0.98383669E-01  -0.11177942
  7717.9600       0.31635181       0.51635181       0.31635181       0.31635181       0.70995286E-01   0.66133474E-01
  7718.0740       0.32494670       0.52494670       0.32494670       0.32494670       0.11372664       0.21111935
  7718.2060       0.34432856       0.54432856       0.34432856       0.34432856       0.12293065      -0.16850756
  7718.3280       0.35617108       0.55617109       0.35617109       0.35617109       0.70925716E-01  -0.21398833
  7718.4410       0.36099610       0.56099611       0.36099611       0.36099611       0.72643388E-01   0.12669867
  7718.5730       0.37396871       0.57396872       0.37396872       0.37396872       0.10196689       0.72384557E-01
  7718.6930       0.38669176       0.58669176       0.38669176       0.38669176       0.90884296E-01  -0.14206013E-02
  7718.8050       0.39505387       0.59505387       0.39505387       0.39505387       0.10163731       0.19018513
  7718.9360       0.41138963       0.61138963       0.41138963       0.41138963       0.13709928       0.25857996
  7719.0560       0.42946579       0.62946579       0.42946579       0.42946579       0.16654088      -0.36864336E-01
  7719.1680       0.45002711       0.65002712       0.45002712       0.45002712       0.12854676      -0.26174708
  7719.2990       0.46070265       0.66070266       0.46070266       0.46070266       0.10293634       0.13800825
  7719.4200       0.47596707       0.67596707       0.47596707       0.47596707       0.16332484       0.20437805
  7719.5350       0.49924731       0.69924732       0.49924732       0.49924732       0.15116956      -0.14262855
  7719.6660       0.51315478       0.71315479       0.51315479       0.51315479       0.12823822       0.11901290
  7719.7880       0.53169158       0.73169159       0.53169159       0.53169159       0.18127982       0.23975680
  7719.9010       0.55575554       0.75575554       0.55575554       0.55575554       0.18458106      -0.47642644E-01
  7720.0340       0.57709852       0.77709853       0.57709853       0.57709853       0.16955973       0.14144070
  7720.1540       0.59865415       0.79865416       0.59865416       0.59865416       0.22036556       0.92672690E-01
  7720.2670       0.62844370       0.82844371       0.62844371       0.62844371       0.19115247      -0.30585502
  7720.3970       0.64510420       0.84510421       0.64510421       0.64510421       0.14604279      -0.88569212E-01
  7720.5160       0.66480835       0.86480836       0.66480836       0.66480836       0.16909874       0.15576504
  7720.6460       0.68720979       0.88720979       0.68720979       0.68720979       0.18482828       0.29061028
  7720.7660       0.71101543       0.91101543       0.71101543       0.71101543       0.24175131       0.12961570
  7720.8790       0.74353784       0.94353785       0.74353785       0.74353785       0.21502874      -0.24280371
  7721.0130       0.76412753       0.96412753       0.76412753       0.76412753       0.18177879      -0.35474720E-01
  7721.1330       0.78970965       0.98970966       0.78970966       0.78970966       0.20601816       0.57270312E-01
  7721.2460       0.81212976        1.0121298       0.81212976       0.81212976       0.19512277       0.53801927E-01
  7721.3790       0.83770985        1.0377099       0.83770986       0.83770986       0.21925344       0.24504660
  7721.5000       0.86782013        1.0678201       0.86775775       0.86775775       0.25736461       0.33937780E-01
  7721.6120       0.89767581        2.2380767       0.89778809        2.0381890       0.22716094      -0.16145961
  7721.7440       0.92324740        2.2210169       0.92356553        2.0213350       0.21796847       0.89425623E-01
  7721.8620       0.95216792        2.2058995       0.95267008        2.0064017       0.24951734      -0.76188727E-01
  7721.9740       0.98063639        2.1916667       0.98131321        1.9923435       0.20044506      -0.43388492
  7722.1040        1.0006756        2.1752872        1.0015552        1.9761668       0.14451720      -0.34279292E-01
  7722.2260        1.0170547        2.1600528        1.0181245        1.9611226       0.19180668       0.25779984
  7722.3580        1.0493945        2.1437186        1.0506702        1.9449942       0.20999835      -0.81250561E-01
  7722.4790        1.0701843        2.1288808        1.0716487        1.9303451       0.17125028      -0.28639377
  7722.5930        1.0896383        2.1150193        1.0912805        1.9166614       0.14269582      -0.31682603
  7722.7240        1.1051448        2.0992314        1.1069912        1.9010778       0.93627906E-01  -0.15542770
  7722.8460        1.1133262        2.0846628        1.1153629        1.8866995       0.10337261       0.27655303
  7722.9580        1.1293340        2.0714022        1.1315453        1.8736136       0.15834131       0.23839605
  7723.0510        1.1457862        2.0604737        1.1481426        1.8628301       0.15224380      -0.18614298
  7723.2130        1.1681561        2.0416150        1.1707652        1.8442240       0.11087486      -0.13679614
  7723.4060        1.1851467        2.0194412        1.1880567        1.8223512       0.10368117       0.15928484E-01
  7723.6030        1.2085918        1.9971349        1.2118090        1.8003522       0.11708696      -0.26332374E-01
  7723.8000        1.2312790        1.9751569        1.2348035        1.7786813       0.93306215E-01  -0.15825214
  7724.0000        1.2456344        1.9531774        1.2494707        1.7570137       0.54260864E-01  -0.17472676
  7724.1980        1.2528748        1.9317460        1.2570200        1.7358911       0.23764965E-01  -0.10911783
  7724.3960        1.2550453        1.9106390        1.2594992        1.7150929       0.11050202E-01  -0.37668546E-01
  7724.5920        1.2572286        1.8900623        1.2619882        1.6948219       0.89235577E-02  -0.52217480E-01
  7724.7890        1.2585522        1.8696962        1.2636190        1.6747629      -0.94712679E-02  -0.96484476E-01
  7725.0080        1.2532886        1.8474241        1.2586969        1.6528324      -0.31213984E-01  -0.30542890E-01
  7725.7230        1.2293984        1.7773717        1.2359217        1.5838950      -0.37998328E-01  -0.74407743E-02
  7726.5070        1.1963291        1.7051406        1.2040750        1.5128865      -0.42367705E-01   0.13055293E-02
  7727.3020        1.1624998        1.6366424        1.1714855        1.4456282      -0.35936897E-01   0.46566359E-02
  7728.0660        1.1403034        1.5751759        1.1504807        1.3853531      -0.35108010E-01   0.45211807E-02
  7728.8300        1.1088547        1.5178444        1.1202234        1.3292130      -0.29028533E-01   0.16180034E-01
  7729.5930        1.0959769        1.4645781        1.1085354        1.2771366      -0.10401098E-01   0.15858612E-01
  7730.3530        1.0930139        1.4153497        1.1067576        1.2290934      -0.48758660E-02   0.44142386E-02
  7731.1470        1.0883998        1.3678538        1.1033818        1.1828358      -0.35413711E-02   0.35155801E-02
  7731.9100        1.0875000        1.3258597        1.1036718        1.1420315       0.59789222E-03  -0.31923997E-02
  7732.6790        1.0893158        1.2870121        1.1066869        1.1043832      -0.84321275E-02  -0.55193962E-02
  7733.4410        1.0745904        1.2518239        1.0931498        1.0703834      -0.78523033E-02   0.55468577E-02
  7734.2140        1.0772625        1.2193501        1.0970274        1.0391150       0.82299030E-04  -0.25732907E-02
  7734.9760        1.0747167        1.1903771        1.0956700        1.0113304      -0.11802305E-01  -0.91404762E-02
  7735.7750        1.0588391        1.1630885        1.0810384       0.98528779      -0.14185984E-01   0.77894496E-02
  7736.5390        1.0525440        1.1398127        1.0759348       0.96320342       0.37260516E-03   0.55705515E-02
  7737.3090        1.0594106        1.1189997        1.0840022       0.94359129      -0.56407584E-02  -0.13884485E-01
  7738.0780        1.0438629        1.1007251        1.0696537       0.92651590      -0.20995617E-01  -0.78127085E-02
  7738.8440        1.0271824        1.0848779        1.0541677       0.91186328      -0.17633266E-01   0.67065437E-02
  7739.6160        1.0167429        1.0711456        1.0449322       0.89933484      -0.10680953E-01   0.13415733E-02
  7740.3880        1.0106910        1.0595199        1.0400842       0.88891306      -0.15561877E-01  -0.73949450E-02
  7741.1610       0.99269982        1.0498481        1.0232985       0.88044682      -0.22106143E-01  -0.50875691E-02
  7741.9520       0.97611698        1.0418428        1.0079492       0.87367507      -0.23518835E-01   0.19686275E-03
  7744.4520       0.91529933        1.0274094       0.95103030       0.86314040      -0.21458267E-01   0.13952738E-02
  7746.9690       0.86846085        1.0258017       0.90811705       0.86545785      -0.16518746E-01   0.18564672E-02
  7749.4530       0.83268908        1.0321561       0.87621904       0.87568601      -0.12174075E-01   0.13385434E-02
  7751.9350       0.80800439        1.0416627       0.85540500       0.88906326      -0.98715399E-02   0.94878392E-03
  7754.4550       0.78331164        1.0509176       0.83464215       0.90224811      -0.74282578E-02   0.18260955E-02
  7756.9490       0.77075911        1.0592037       0.82597898       0.91442354      -0.71549689E-03   0.25830063E-02
  7759.4300       0.77975204        1.0666095       0.83884100       0.92569845       0.54221985E-02   0.16572991E-02
  7761.9470       0.79785926        1.0732951       0.86087345       0.93630930       0.75676841E-02   0.11013215E-02
  7764.4680       0.81787803        1.0791816       0.88482369       0.94612725       0.10970656E-01   0.62555539E-03
  7766.9650       0.85291001        1.0842387       0.92374971       0.95507836       0.10706721E-01  -0.46843859E-04
  7769.4620       0.87134740        1.0885514       0.94608113       0.96328515       0.10736718E-01   0.48251132E-05
  7771.9870       0.90682981        1.0921814       0.98550125       0.97085287       0.10730953E-01  -0.12078243E-02
  7774.4880       0.92528117        1.0950778        1.0078529       0.97764948       0.46661933E-02  -0.17930547E-02
  7776.9970       0.93020744        1.0973098        1.0166919       0.98379427       0.17477487E-02  -0.59113069E-03
  7780.5620       0.93589699        1.0993712        1.0279410       0.99141520       0.10756655E-02  -0.79227599E-03
  7784.1490       0.93790060        1.1001971        1.0355385       0.99783498      -0.39186092E-02  -0.57108885E-03
  7787.6930       0.90795339        1.0998566        1.0111181        1.0030213      -0.29967691E-02   0.67387232E-03
  7791.2820       0.91652464        1.0984144        1.0252864        1.0071762       0.88812203E-03   0.18998120E-03
  7794.8620       0.91432034        1.0959501        1.0286650        1.0102948      -0.16347939E-02  -0.61014935E-03
  7798.4360       0.90482933        1.0925424        1.0247476        1.0124607      -0.34768864E-02  -0.27729617E-03
  7802.0150       0.88945017        1.0882553        1.0149499        1.0137550      -0.36182934E-02   0.39792591E-04
  7805.6140       0.87885722        1.0831369        1.0099695        1.0142492      -0.31912552E-02   0.17291978E-03
  7809.2040       0.86650823        1.0772998        1.0032191        1.0140107      -0.23751731E-02   0.42414691E-03
  7812.8090       0.86176785        1.0707789        1.0041007        1.0131117      -0.13951818E-03  -0.47299509E-04
  7816.3810       0.86550691        1.0637406        1.0134102        1.0116439      -0.27146416E-02  -0.46398237E-03
  7819.9940       0.84226315        1.0561129       0.99580088        1.0096506      -0.34732315E-02   0.58123840E-04
  7823.6050       0.84041629        1.0480543       0.99958533        1.0072233      -0.22947550E-02  -0.13944621E-03
  7827.2230       0.82567436        1.0396207       0.99048563        1.0044319      -0.44812882E-02   0.29295476E-04
  7830.8140       0.80811068        1.0309699       0.97852207        1.0013813      -0.20835639E-02   0.74745040E-03
  7834.4380       0.81064145        1.0220333       0.98670442       0.99809629       0.91156650E-03  -0.78241751E-04
  7838.0600       0.81471589        1.0129715       0.99642732       0.99468296      -0.26505037E-02  -0.37053083E-03
  7841.6900       0.79142000        1.0038366       0.97879237       0.99120893      -0.17755231E-02   0.75992553E-03
  7845.3200       0.80182559       0.99472595       0.99485890       0.98775924       0.28665557E-02   0.12788096E-02
