# XDI/1.0 Athena/0.9.26
# Element.edge:                  K
# Element.symbol:                Co
# Column.1:                      energy eV
# Column.2:                      norm
# Column.3:                      nbkg
# Column.4:                      flat
# Column.5:                      fbkg
# Column.6:                      nder
# Column.7:                      nsec
# Athena.e0:                     7721.54
# Athena.eshift:                 0
# Athena.rbkg:                   1.0
# Athena.importance:             1
# Athena.standard:               None
# Athena.bkg_kweight:            3
# Athena.edge_step:              1.1938107
# Athena.fixed_step:             no
# Athena.pre_edge_range:         -82.964 -19.904
# Athena.pre_edge_line:          0.185611 + 0.000190478 * E
# Athena.normalization_range:    45 125.256
# Athena.post_edge_polynomial:   15.615580 - 0.00165322 * E + 0 * E^2 + 0 * E^3
# Athena.spline_range_energy:    0.000 125.180
# Athena.clamps:                 0 24
# Athena.spline_range_k:         0.000 5.732
# Athena.kweight:                2
# Athena.window:                 hanning
# Athena.phase_correction:       no
# Athena.k_range:                .4 5.35
# Athena.dk:                     .5
# Athena.r_range:                .4 5.1
# Athena.dr:                     .5
# Athena.window:                 hanning
# Athena.plot_multiplier:        1
# Athena.y_offset:               0.2
# ///
#------------------------
#   e         norm        nbkg        flat        fbkg        nder        nsec
  7600.0670      -0.21418151      -0.14181517E-01  -0.21418152      -0.21418152       0.12099185E-01  -0.50273553E-03
  7610.6410      -0.86244731E-01   0.11375527      -0.86244734E-01  -0.86244734E-01   0.67832593E-02  -0.37239192E-03
  7624.5560      -0.48066273E-01   0.15193373      -0.48066275E-01  -0.48066275E-01   0.29796791E-02  -0.20611796E-03
  7637.2000      -0.71074349E-02   0.19289256      -0.71074351E-02  -0.71074351E-02   0.13089723E-02  -0.13297785E-03
  7649.6990      -0.15154782E-01   0.18484522      -0.15154783E-01  -0.15154783E-01  -0.36378309E-03   0.94596635E-04
  7662.1990      -0.16201648E-01   0.18379835      -0.16201649E-01  -0.16201649E-01   0.36737936E-02   0.22868531E-04
  7674.7330       0.76814967E-01   0.27681497       0.76814969E-01   0.76814969E-01   0.20870772E-03  -0.28100668E-03
  7687.3310      -0.10956406E-01   0.18904359      -0.10956406E-01  -0.10956406E-01  -0.33884663E-02   0.88800197E-05
  7700.0100      -0.88352959E-02   0.19116470      -0.88352961E-02  -0.88352961E-02   0.43316797E-03   0.97363365E-03
  7700.3880      -0.53005319E-02   0.19469947      -0.53005320E-02  -0.53005320E-02   0.93242683E-02   0.37959569E-02
  7700.7190      -0.22243896E-02   0.19777561      -0.22243897E-02  -0.22243897E-02   0.31245014E-02  -0.21884987E-01
  7701.0710      -0.31664974E-02   0.19683350      -0.31664975E-02  -0.31664975E-02  -0.56231777E-02  -0.14005890E-02
  7701.4340      -0.62449617E-02   0.19375504      -0.62449619E-02  -0.62449619E-02   0.21230802E-02   0.16449818E-01
  7701.7980      -0.16230181E-02   0.19837698      -0.16230182E-02  -0.16230181E-02   0.63358397E-02  -0.81929180E-02
  7702.1550      -0.16768213E-02   0.19832318      -0.16768213E-02  -0.16768213E-02  -0.37840137E-02  -0.18135307E-01
  7702.5150      -0.43361559E-02   0.19566384      -0.43361560E-02  -0.43361560E-02  -0.66671756E-02   0.14703503E-02
  7702.8790      -0.65038564E-02   0.19349614      -0.65038566E-02  -0.65038566E-02  -0.27194800E-02   0.70481498E-02
  7703.2420      -0.63132179E-02   0.19368678      -0.63132181E-02  -0.63132180E-02  -0.15431707E-02   0.77671065E-02
  7703.6000      -0.76164825E-02   0.19238352      -0.76164827E-02  -0.76164827E-02   0.28806038E-02   0.14631196E-01
  7703.9610      -0.42420637E-02   0.19575794      -0.42420639E-02  -0.42420639E-02   0.89766590E-02   0.64646525E-03
  7704.3250      -0.11084047E-02   0.19889160      -0.11084047E-02  -0.11084047E-02   0.33492911E-02  -0.14529894E-01
  7704.6870      -0.18104784E-02   0.19818952      -0.18104785E-02  -0.18104785E-02  -0.15720440E-02  -0.99319532E-02
  7705.0200      -0.22009752E-02   0.19779902      -0.22009753E-02  -0.22009753E-02  -0.35534164E-02   0.17248957E-02
  7705.3810      -0.42765494E-02   0.19572345      -0.42765495E-02  -0.42765495E-02  -0.37496639E-03   0.26972564E-01
  7705.7490      -0.24743257E-02   0.19752567      -0.24743258E-02  -0.24743258E-02   0.16109582E-01   0.32824829E-01
  7706.1120       0.74995554E-02   0.20749956       0.74995556E-02   0.74995556E-02   0.23619984E-01   0.18500932E-01
  7706.4710       0.14579303E-01   0.21457930       0.14579303E-01   0.14579303E-01   0.29467255E-01   0.13896198E-01
  7706.8310       0.28686512E-01   0.22868651       0.28686513E-01   0.28686513E-01   0.33611350E-01  -0.39981738E-02
  7707.1960       0.38947531E-01   0.23894753       0.38947533E-01   0.38947533E-01   0.26568579E-01  -0.23167880E-01
  7707.5570       0.47975300E-01   0.24797530       0.47975302E-01   0.47975302E-01   0.16791469E-01  -0.29622302E-01
  7707.9150       0.51020598E-01   0.25102060       0.51020599E-01   0.51020599E-01   0.52701443E-02  -0.16799379E-01
  7708.2800       0.51785615E-01   0.25178562       0.51785616E-01   0.51785616E-01   0.46455178E-02  -0.66866877E-02
  7708.6460       0.54416471E-01   0.25441647       0.54416473E-01   0.54416473E-01   0.38217552E-03  -0.18195629E-01
  7708.9820       0.52053902E-01   0.25205390       0.52053903E-01   0.52053903E-01  -0.81278140E-02   0.25818173E-02
  7709.2900       0.49182159E-01   0.24918216       0.49182160E-01   0.49182160E-01   0.20448659E-02   0.25769966E-01
  7709.5960       0.53309449E-01   0.25330945       0.53309451E-01   0.53309451E-01   0.76949450E-02  -0.14837536E-01
  7709.9030       0.53899160E-01   0.25389916       0.53899162E-01   0.53899162E-01  -0.70505439E-02  -0.35505707E-01
  7710.2110       0.48973365E-01   0.24897337       0.48973366E-01   0.48973366E-01  -0.14141065E-01  -0.22399878E-02
  7710.5140       0.45258970E-01   0.24525897       0.45258971E-01   0.45258971E-01  -0.84191765E-02   0.16267845E-01
  7710.8230       0.43820829E-01   0.24382083       0.43820830E-01   0.43820830E-01  -0.41851439E-02   0.24160627E-01
  7711.1080       0.42772994E-01   0.24277300       0.42772995E-01   0.42772995E-01   0.59322358E-02   0.14454142E-01
  7711.4160       0.47338645E-01   0.24733865       0.47338646E-01   0.47338646E-01   0.43861623E-02  -0.17883266E-01
  7711.7250       0.45479256E-01   0.24547926       0.45479258E-01   0.45479258E-01  -0.51017392E-02  -0.80425344E-02
  7712.0290       0.44211279E-01   0.24421128       0.44211280E-01   0.44211280E-01  -0.54391126E-03  -0.29909290E-02
  7712.3330       0.45148558E-01   0.24514856       0.45148560E-01   0.45148560E-01  -0.69202241E-02   0.36176320E-02
  7712.6440       0.39955341E-01   0.23995534       0.39955342E-01   0.39955342E-01   0.16809324E-02   0.37325145E-01
  7712.9530       0.46190736E-01   0.24619074       0.46190738E-01   0.46190738E-01   0.16221366E-01   0.38326305E-01
  7713.2350       0.49542168E-01   0.24954217       0.49542169E-01   0.49542169E-01   0.24331779E-01   0.50178420E-01
  7713.5380       0.60424827E-01   0.26042483       0.60424829E-01   0.60424829E-01   0.45575742E-01   0.58947020E-01
  7713.8530       0.77707976E-01   0.27770798       0.77707979E-01   0.77707979E-01   0.60761037E-01   0.49910685E-01
  7714.1610       0.98278953E-01   0.29827896       0.98278956E-01   0.98278956E-01   0.76670098E-01   0.13542677E-01
  7714.4700       0.12501343       0.32501343       0.12501343       0.12501343       0.69116869E-01  -0.53142235E-01
  7714.7770       0.14085494       0.34085495       0.14085495       0.14085495       0.43934482E-01  -0.44947825E-01
  7715.0770       0.15168166       0.35168166       0.15168166       0.15168166       0.41833539E-01   0.11140811E-01
  7715.3860       0.16633157       0.36633157       0.16633157       0.16633157       0.50719235E-01  -0.34875149E-03
  7715.6700       0.18175816       0.38175817       0.18175817       0.18175817       0.41626729E-01  -0.52749621E-01
  7715.9720       0.19072483       0.39072484       0.19072484       0.19072484       0.19807957E-01  -0.42795953E-01
  7716.1370       0.19100848       0.39100849       0.19100849       0.19100849       0.21641019E-01   0.27964186E-01
  7716.2550       0.19684924       0.39684925       0.19684925       0.19684925       0.27721822E-01   0.59538561E-01
  7716.3670       0.19738450       0.39738450       0.19738450       0.19738450       0.35334888E-01   0.22629844
  7716.4990       0.20547095       0.40547096       0.20547096       0.20547096       0.82938641E-01   0.17739628
  7716.6200       0.21836797       0.41836798       0.21836798       0.21836798       0.80216147E-01  -0.12969225
  7716.7330       0.22424153       0.42424154       0.22424154       0.22424154       0.52590654E-01  -0.23872766
  7716.8670       0.23135787       0.43135787       0.23135787       0.23135787       0.21250414E-01  -0.79907013E-01
  7716.9880       0.22966039       0.42966039       0.22966039       0.22966039       0.32214365E-01   0.15571935
  7717.1010       0.23889603       0.43889603       0.23889603       0.23889603       0.57688742E-01   0.18629745E-01
  7717.2330       0.24379413       0.44379414       0.24379414       0.24379414       0.36778653E-01   0.65530177E-01
  7717.3500       0.24805391       0.44805392       0.24805392       0.24805392       0.74005757E-01   0.12896903
  7717.4620       0.26074145       0.46074146       0.26074146       0.26074146       0.66312560E-01  -0.12974655
  7717.5920       0.26410155       0.46410156       0.26410156       0.26410156       0.42607092E-01   0.55127599E-01
  7717.7100       0.27130801       0.47130801       0.27130801       0.27130801       0.79984204E-01   0.24947337
  7717.8420       0.28409760       0.48409761       0.28409761       0.28409761       0.10497544       0.11919273
  7717.9600       0.29755187       0.49755187       0.29755187       0.29755187       0.10978239      -0.78236418E-01
  7718.0740       0.30956712       0.50956713       0.30956713       0.30956713       0.86824586E-01  -0.11925730
  7718.2060       0.31891071       0.51891072       0.31891072       0.31891072       0.80445092E-01  -0.37818352E-01
  7718.3280       0.33000017       0.53000018       0.33000018       0.33000018       0.77218725E-01   0.13066674E-01
  7718.4410       0.33705711       0.53705712       0.33705712       0.33705712       0.83515760E-01   0.50306908E-01
  7718.5730       0.35046153       0.55046154       0.35046154       0.35046154       0.89543917E-01   0.11033366
  7718.6930       0.35962218       0.55962219       0.35962219       0.35962219       0.11131984       0.16231577
  7718.8050       0.37628773       0.57628775       0.37628775       0.37628775       0.12720118      -0.58157704E-01
  7718.9360       0.39053207       0.59053208       0.39053208       0.39053208       0.97187521E-01  -0.17055144E-01
  7719.0560       0.40068180       0.60068181       0.40068181       0.40068181       0.12292034       0.14667932
  7719.1680       0.41904959       0.61904960       0.41904960       0.41904960       0.13121712       0.44270348E-01
  7719.2990       0.43256756       0.63256758       0.43256758       0.43256758       0.13367803       0.16436619
  7719.4200       0.45273645       0.65273646       0.45273646       0.45273646       0.17263740       0.11128433
  7719.5350       0.47330999       0.67331000       0.47331000       0.47331000       0.15994113      -0.10636938
  7719.6660       0.49208197       0.69208198       0.49208198       0.49208198       0.14647054      -0.12397657
  7719.7880       0.51036704       0.71036705       0.51036705       0.51036705       0.12857506       0.96122255E-02
  7719.9010       0.52229711       0.72229712       0.52229712       0.52229712       0.14872941       0.33555629
  7720.0340       0.54695447       0.74695449       0.54695449       0.54695449       0.21112191       0.24967276
  7720.1540       0.57571095       0.77571097       0.57571097       0.57571097       0.21189662      -0.78211183E-01
  7720.2670       0.59632638       0.79632640       0.59632640       0.59632640       0.19289870      -0.10554419
  7720.3970       0.62258533       0.82258535       0.62258535       0.62258535       0.18624938      -0.13129970
  7720.5160       0.64270248       0.84270250       0.64270250       0.64270250       0.16020508      -0.75554037E-01
  7720.6460       0.66247640       0.86247642       0.66247642       0.66247642       0.16743643       0.16731993
  7720.7660       0.68456159       0.88456161       0.68456161       0.68456161       0.20203506       0.30905092
  7720.8790       0.70955057       0.90955059       0.70955059       0.70955059       0.23944529       0.77844942E-01
  7721.0130       0.74370457       0.94370459       0.74370459       0.74370459       0.22126276      -0.31520009
  7721.1330       0.76575131       0.96575133       0.76575133       0.76575133       0.15938447      -0.13922459
  7721.2460       0.78084115       0.98084117       0.78084117       0.78084117       0.18882343       0.34085159
  7721.3790       0.81220187        1.0122019       0.81220190       0.81220190       0.24323396       0.30820693
  7721.5000       0.84262258        1.0426226       0.84256080       0.84256080       0.26710799       0.74867235E-02
  7721.6120       0.87443804        2.2712261       0.87454923        2.0713373       0.24497836      -0.19758983
  7721.7440       0.90239730        2.2536743       0.90271235        2.0539893       0.21889607       0.78503827E-01
  7721.8620       0.92916205        2.2381210       0.92965934        2.0386183       0.26460432      -0.83474500E-01
  7721.9740       0.96325629        2.2234778       0.96392655        2.0241480       0.19969694      -0.44742753
  7722.1040       0.97748871        2.2066260       0.97835974        2.0074970       0.15632686       0.89607539E-01
  7722.2260        1.0026507        2.1909523        1.0037101        1.9920118       0.22227804       0.26878794
  7722.3580        1.0339473        2.1741470        1.0352106        1.9754103       0.22459900      -0.15392710
  7722.4790        1.0594742        2.1588814        1.0609244        1.9603315       0.18333448      -0.28064079
  7722.5930        1.0770309        2.1446202        1.0786572        1.9462464       0.15864841      -0.26365961
  7722.7240        1.0983431        2.1283769        1.1001716        1.9302055       0.11873787      -0.16382774
  7722.8460        1.1070716        2.1133882        1.1090886        1.9154052       0.11719999       0.24308598
  7722.9580        1.1257679        2.0997453        1.1279578        1.9019352       0.17561999       0.27523728
  7723.0510        1.1430737        2.0885016        1.1454073        1.8908351       0.17362363      -0.17035750
  7723.2130        1.1700419        2.0690990        1.1726256        1.8716827       0.13217883      -0.15225393
  7723.4060        1.1899972        2.0462857        1.1928790        1.8491675       0.11957349      -0.82212962E-02
  7723.6030        1.2166755        2.0233361        1.2198616        1.8265222       0.12897253      -0.42810694E-01
  7723.8000        1.2408124        2.0007242        1.2443027        1.8042144       0.10270607      -0.15259768
  7724.0000        1.2574499        1.9781108        1.2612490        1.7819099       0.68391247E-01  -0.20418345
  7724.1980        1.2680321        1.9560613        1.2721371        1.7601662       0.21441060E-01  -0.15310885
  7724.3960        1.2659405        1.9343455        1.2703513        1.7387562       0.77601420E-02  -0.17498908E-01
  7724.5920        1.2710896        1.9131753        1.2758030        1.7178887       0.14546490E-01  -0.58305447E-01
  7724.7890        1.2716573        1.8922217        1.2766750        1.6972393      -0.15153899E-01  -0.11190326
  7725.0080        1.2647856        1.8693072        1.2701415        1.6746630      -0.32005266E-01  -0.27436830E-01
  7725.7230        1.2417644        1.7972339        1.2482245        1.6036940      -0.40779898E-01  -0.97977224E-02
  7726.5070        1.2036565        1.7229190        1.2113274        1.5305898      -0.46692052E-01   0.10682407E-02
  7727.3020        1.1680376        1.6524444        1.1769363        1.4613431      -0.39093146E-01   0.53006627E-02
  7728.0660        1.1427103        1.5892042        1.1527889        1.3992828      -0.38428319E-01   0.57836322E-02
  7728.8300        1.1093192        1.5302182        1.1205777        1.3414767      -0.30255756E-01   0.19313785E-01
  7729.5930        1.0965097        1.4754145        1.1089466        1.2878514      -0.89361694E-02   0.18450012E-01
  7730.3530        1.0957094        1.4247652        1.1093200        1.2383757      -0.21563888E-02   0.47625523E-02
  7731.1470        1.0931587        1.3758981        1.1079956        1.1907349      -0.15351631E-02   0.25176505E-02
  7731.9100        1.0933191        1.3326915        1.1093343        1.1487067       0.17635930E-02  -0.40679388E-02
  7732.6790        1.0958605        1.2927222        1.1130634        1.1099250      -0.77672453E-02  -0.72011190E-02
  7733.4410        1.0814275        1.2565179        1.0998071        1.0748975      -0.92613202E-02   0.44278138E-02
  7734.2140        1.0816444        1.2231061        1.1012179        1.0426795      -0.97055109E-03  -0.15499984E-02
  7734.9760        1.0799377        1.1932962        1.1006879        1.0140464      -0.11640568E-01  -0.94667419E-02
  7735.7750        1.0634735        1.1652193        1.0854577       0.98720346      -0.15748135E-01   0.65056750E-02
  7736.5390        1.0553233        1.1412710        1.0784875       0.96443507      -0.14721976E-02   0.66159383E-02
  7737.3090        1.0612151        1.1198567        1.0855684       0.94420995      -0.55992858E-02  -0.12583162E-01
  7738.0780        1.0467060        1.1010540        1.0722469       0.92659491      -0.20837684E-01  -0.78407742E-02
  7738.8440        1.0292293        1.0847489        1.0559532       0.91147281      -0.17634874E-01   0.68193168E-02
  7739.6160        1.0195836        1.0706198        1.0474998       0.89853594      -0.10349574E-01   0.18745220E-02
  7740.3880        1.0132496        1.0586583        1.0423580       0.88776666      -0.14740612E-01  -0.68824170E-02
  7741.1610       0.99680935        1.0487072        1.0271116       0.87900942      -0.20982909E-01  -0.61786041E-02
  7741.9520       0.98043228        1.0404709        1.0119561       0.87199468      -0.24403949E-01  -0.21264674E-03
  7744.4520       0.91649595        1.0256223       0.95188072       0.86100709      -0.21682729E-01   0.16691340E-02
  7746.9690       0.87165003        1.0239723       0.91092200       0.86324428      -0.16029904E-01   0.16547802E-02
  7749.4530       0.83633040        1.0305177       0.87943860       0.87362585      -0.13407173E-01   0.98547553E-03
  7751.9350       0.80507001        1.0403103       0.85201135       0.88725166      -0.11136032E-01   0.11321655E-02
  7754.4550       0.78062797        1.0498491       0.83146115       0.90068223      -0.77440817E-02   0.20292968E-02
  7756.9490       0.76624118        1.0583958       0.82092603       0.91308067      -0.96113820E-03   0.26744415E-02
  7759.4300       0.77584631        1.0660420       0.83436276       0.92455838       0.55612646E-02   0.17367993E-02
  7761.9470       0.79403638        1.0729529       0.85644003       0.93535649       0.77193847E-02   0.11385546E-02
  7764.4680       0.81473657        1.0790472       0.88103359       0.94534422       0.11297303E-01   0.65649145E-03
  7766.9650       0.85072625        1.0842936       0.92087958       0.95444690       0.11013659E-01  -0.94466303E-04
  7769.4620       0.86973878        1.0887800       0.94374843       0.96278961       0.10825538E-01   0.69301050E-04
  7771.9870       0.90509210        1.0925706       0.98300130       0.97047978       0.11361689E-01  -0.10907210E-02
  7774.4880       0.92684263        1.0956121        1.0086143       0.97738375       0.53435742E-02  -0.18378098E-02
  7776.9970       0.93186341        1.0979767        1.0175099       0.98362319       0.21542614E-02  -0.70664736E-03
  7780.5620       0.93992761        1.1002057        1.0310798       0.99135793       0.10513981E-02  -0.86613599E-03
  7784.1490       0.93938301        1.1011782        1.0360749       0.99787011      -0.40403432E-02  -0.58228928E-03
  7787.6930       0.91111592        1.1009633        1.0132811        1.0031285      -0.31009068E-02   0.64459210E-03
  7791.2820       0.91726424        1.0996316        1.0249722        1.0073395       0.55753225E-03   0.22880852E-03
  7794.8620       0.91511287        1.0972632        1.0283497        1.0105000      -0.14605785E-02  -0.54444983E-03
  7798.4360       0.90681526        1.0939396        1.0255717        1.0126961      -0.33374619E-02  -0.27834344E-03
  7802.0150       0.89124001        1.0897280        1.0155238        1.0140117      -0.34515691E-02   0.27113186E-05
  7805.6140       0.88203990        1.0846791        1.0118819        1.0145210      -0.33180000E-02   0.13798241E-03
  7809.2040       0.86738691        1.0789077        1.0027732        1.0142940      -0.24596135E-02   0.46223485E-03
  7812.8090       0.86434298        1.0724518        1.0052967        1.0134055       0.77797154E-05  -0.46332604E-04
  7816.3810       0.86744274        1.0654795        1.0139130        1.0119498      -0.27921426E-02  -0.50476534E-03
  7819.9940       0.84428143        1.0579229       0.99633155        1.0099730      -0.36189593E-02   0.55890856E-04
  7823.6050       0.84129938        1.0499426       0.99892625        1.0075694      -0.23883871E-02  -0.96164365E-04
  7827.2230       0.82701578        1.0415972       0.99023021        1.0048116      -0.43141315E-02   0.16920725E-04
  7830.8140       0.81019881        1.0330464       0.97895909        1.0018066      -0.22664056E-02   0.70394083E-03
  7834.4380       0.81066367        1.0242260       0.98502077       0.99858307       0.76480159E-03  -0.52510992E-04
  7838.0600       0.81574056        1.0152983       0.99569140       0.99524916      -0.26469002E-02  -0.32502214E-03
  7841.6900       0.79146835        1.0063187       0.97702528       0.99187560      -0.15922589E-02   0.84696170E-03
  7845.3200       0.80418076       0.99738700       0.99534378       0.98855000       0.35020417E-02   0.14033886E-02
