# XDI/1.0 Athena/0.9.26
# Element.edge:                  K
# Element.symbol:                Co
# Column.1:                      energy eV
# Column.2:                      norm
# Column.3:                      nbkg
# Column.4:                      flat
# Column.5:                      fbkg
# Column.6:                      nder
# Column.7:                      nsec
# Athena.e0:                     7721.54
# Athena.eshift:                 0
# Athena.rbkg:                   1.0
# Athena.importance:             1
# Athena.standard:               None
# Athena.bkg_kweight:            3
# Athena.edge_step:              1.1941116
# Athena.fixed_step:             no
# Athena.pre_edge_range:         -82.964 -19.904
# Athena.pre_edge_line:          0.077387 + 0.000204578 * E
# Athena.normalization_range:    45 125.256
# Athena.post_edge_polynomial:   15.637891 - 0.00165598 * E + 0 * E^2 + 0 * E^3
# Athena.spline_range_energy:    0.000 125.180
# Athena.clamps:                 0 24
# Athena.spline_range_k:         0.000 5.732
# Athena.kweight:                2
# Athena.window:                 hanning
# Athena.phase_correction:       no
# Athena.k_range:                .4 5.35
# Athena.dk:                     .5
# Athena.r_range:                .4 5.1
# Athena.dr:                     .5
# Athena.window:                 hanning
# Athena.plot_multiplier:        1
# Athena.y_offset:               0.2
# ///
#------------------------
#   e         norm        nbkg        flat        fbkg        nder        nsec
  7600.0670      -0.21998106      -0.19981060E-01  -0.21998106      -0.21998106       0.13026392E-01  -0.56676922E-03
  7610.6410      -0.82239989E-01   0.11776001      -0.82239990E-01  -0.82239990E-01   0.70333742E-02  -0.41704750E-03
  7624.5560      -0.47740757E-01   0.15225924      -0.47740758E-01  -0.47740758E-01   0.28133156E-02  -0.21566937E-03
  7637.2000      -0.75211399E-02   0.19247886      -0.75211399E-02  -0.75211399E-02   0.13054113E-02  -0.12903943E-03
  7649.6990      -0.14918802E-01   0.18508120      -0.14918802E-01  -0.14918802E-01  -0.43112275E-03   0.10005870E-03
  7662.1990      -0.18298778E-01   0.18170122      -0.18298778E-01  -0.18298778E-01   0.38067786E-02   0.29249722E-04
  7674.7330       0.80380094E-01   0.28038009       0.80380094E-01   0.80380094E-01   0.30111477E-03  -0.29255111E-03
  7687.3310      -0.10731161E-01   0.18926884      -0.10731161E-01  -0.10731161E-01  -0.35456158E-02   0.74950717E-06
  7700.0100      -0.92424375E-02   0.19075756      -0.92424376E-02  -0.92424376E-02   0.32006007E-03   0.10582291E-02
  7700.3880      -0.65521367E-02   0.19344786      -0.65521368E-02  -0.65521368E-02   0.10271682E-01   0.64963108E-02
  7700.7190      -0.19598151E-02   0.19804018      -0.19598151E-02  -0.19598151E-02   0.49259444E-02  -0.24104878E-01
  7701.0710      -0.31877167E-02   0.19681228      -0.31877167E-02  -0.31877167E-02  -0.61919497E-02  -0.37985264E-02
  7701.4340      -0.63870591E-02   0.19361294      -0.63870592E-02  -0.63870592E-02   0.22099980E-02   0.16563374E-01
  7701.7980      -0.15810481E-02   0.19841895      -0.15810482E-02  -0.15810481E-02   0.58496230E-02  -0.91645139E-02
  7702.1550      -0.21694809E-02   0.19783052      -0.21694810E-02  -0.21694810E-02  -0.43976165E-02  -0.16644814E-01
  7702.5150      -0.47341392E-02   0.19526586      -0.47341392E-02  -0.47341392E-02  -0.60847088E-02   0.17858935E-02
  7702.8790      -0.65748101E-02   0.19342519      -0.65748101E-02  -0.65748101E-02  -0.31046296E-02   0.87578759E-02
  7703.2420      -0.69912049E-02   0.19300880      -0.69912050E-02  -0.69912050E-02   0.28226703E-03   0.73596690E-02
  7703.6000      -0.63712955E-02   0.19362870      -0.63712956E-02  -0.63712956E-02   0.22016917E-02   0.11041846E-01
  7703.9610      -0.54081886E-02   0.19459181      -0.54081886E-02  -0.54081886E-02   0.82213545E-02   0.46967821E-02
  7704.3250      -0.41081356E-03   0.19958919      -0.41081357E-03  -0.41081356E-03   0.56068587E-02  -0.14237249E-01
  7704.6870      -0.13376091E-02   0.19866239      -0.13376091E-02  -0.13376091E-02  -0.21148884E-02  -0.15120702E-01
  7705.0200      -0.18806610E-02   0.19811934      -0.18806610E-02  -0.18806610E-02  -0.49020289E-02   0.24365008E-02
  7705.3810      -0.47396172E-02   0.19526038      -0.47396172E-02  -0.47396172E-02  -0.42395685E-03   0.32640686E-01
  7705.7490      -0.21897256E-02   0.19781027      -0.21897256E-02  -0.21897256E-02   0.18893031E-01   0.35241605E-01
  7706.1120       0.90711884E-02   0.20907119       0.90711885E-02   0.90711885E-02   0.25337656E-01   0.14179617E-01
  7706.4710       0.16104062E-01   0.21610406       0.16104062E-01   0.16104062E-01   0.29130714E-01   0.12528647E-01
  7706.8310       0.30016172E-01   0.23001617       0.30016172E-01   0.30016172E-01   0.34345754E-01  -0.36366973E-02
  7707.1960       0.41004734E-01   0.24100473       0.41004734E-01   0.41004734E-01   0.26494109E-01  -0.26801307E-01
  7707.5570       0.49250895E-01   0.24925090       0.49250896E-01   0.49250896E-01   0.14888005E-01  -0.32719632E-01
  7707.9150       0.51709209E-01   0.25170921       0.51709209E-01   0.51709209E-01   0.29686936E-02  -0.17770001E-01
  7708.2800       0.51397261E-01   0.25139726       0.51397261E-01   0.51397261E-01   0.20402936E-02  -0.87371547E-02
  7708.6460       0.53200664E-01   0.25320066       0.53200664E-01   0.53200664E-01  -0.34181665E-02  -0.12865006E-01
  7708.9820       0.48997708E-01   0.24899771       0.48997708E-01   0.48997708E-01  -0.69909406E-02   0.14075172E-01
  7709.2900       0.48698498E-01   0.24869850       0.48698498E-01   0.48698498E-01   0.56462443E-02   0.18913837E-01
  7709.5960       0.52464502E-01   0.25246450       0.52464502E-01   0.52464502E-01   0.46221555E-02  -0.18208259E-01
  7709.9030       0.51531879E-01   0.25153188       0.51531880E-01   0.51531880E-01  -0.55154186E-02  -0.28278228E-01
  7710.2110       0.49072519E-01   0.24907252       0.49072520E-01   0.49072520E-01  -0.12768955E-01  -0.25349214E-02
  7710.5140       0.43730048E-01   0.24373005       0.43730048E-01   0.43730048E-01  -0.70642556E-02   0.22744986E-01
  7710.8230       0.44749195E-01   0.24474920       0.44749195E-01   0.44749195E-01   0.11509768E-02   0.28461673E-01
  7711.1080       0.44413728E-01   0.24441373       0.44413728E-01   0.44413728E-01   0.98419779E-02   0.12808145E-01
  7711.4160       0.50585488E-01   0.25058549       0.50585488E-01   0.50585488E-01   0.87462066E-02  -0.22800247E-01
  7711.7250       0.49810137E-01   0.24981014       0.49810138E-01   0.49810138E-01  -0.42257746E-02  -0.16148029E-01
  7712.0290       0.47995088E-01   0.24799509       0.47995088E-01   0.47995088E-01  -0.11525354E-02  -0.55401883E-04
  7712.3330       0.49109396E-01   0.24910940       0.49109396E-01   0.49109396E-01  -0.42594589E-02   0.89426711E-02
  7712.6440       0.45375521E-01   0.24537552       0.45375521E-01   0.45375521E-01   0.43472073E-02   0.37076937E-01
  7712.9530       0.51804664E-01   0.25180466       0.51804665E-01   0.51804665E-01   0.18728242E-01   0.38832664E-01
  7713.2350       0.56443912E-01   0.25644391       0.56443912E-01   0.56443912E-01   0.27297312E-01   0.46401659E-01
  7713.5380       0.67773592E-01   0.26777359       0.67773593E-01   0.67773593E-01   0.45873212E-01   0.56109155E-01
  7713.8530       0.84793557E-01   0.28479356       0.84793558E-01   0.84793558E-01   0.61972770E-01   0.49373198E-01
  7714.1610       0.10638263       0.30638263       0.10638263       0.10638263       0.76632715E-01   0.14046318E-01
  7714.4700       0.13207594       0.33207594       0.13207594       0.13207594       0.70639348E-01  -0.44851205E-01
  7714.7770       0.14989647       0.34989647       0.14989647       0.14989647       0.49004373E-01  -0.49085732E-01
  7715.0770       0.16182160       0.36182160       0.16182160       0.16182160       0.40844309E-01   0.45756132E-02
  7715.3860       0.17477065       0.37477065       0.17477065       0.17477065       0.51790921E-01   0.94950073E-02
  7715.6700       0.19253361       0.39253361       0.19253361       0.19253361       0.46474848E-01  -0.54657504E-01
  7715.9720       0.20200491       0.40200491       0.20200491       0.20200491       0.19761624E-01  -0.60089400E-01
  7716.1370       0.20176229       0.40176229       0.20176229       0.20176229       0.18413098E-01   0.74378424E-01
  7716.2550       0.20721582       0.40721582       0.20721582       0.20721582       0.40810718E-01   0.12581610
  7716.3670       0.21114876       0.41114876       0.21114876       0.21114876       0.47350802E-01   0.14409117
  7716.4990       0.21876941       0.41876942       0.21876942       0.21876942       0.75968964E-01   0.10065024
  7716.6200       0.23036890       0.43036891       0.23036891       0.23036891       0.72815312E-01  -0.94386820E-01
  7716.7330       0.23580820       0.43580820       0.23580820       0.23580820       0.53882448E-01  -0.14997527
  7716.8670       0.24367787       0.44367787       0.24367787       0.24367787       0.35771421E-01  -0.44486056E-01
  7716.9880       0.24492991       0.44492991       0.24492991       0.24492991       0.42538503E-01   0.81572239E-01
  7717.1010       0.25363188       0.45363188       0.25363188       0.25363188       0.54859325E-01  -0.19448416E-01
  7717.2330       0.25837044       0.45837045       0.25837045       0.25837045       0.37773641E-01   0.99410333E-01
  7717.3500       0.26303751       0.46303752       0.26303752       0.26303752       0.79612498E-01   0.17033134
  7717.4620       0.27660171       0.47660171       0.27660171       0.27660171       0.76779518E-01  -0.10497929
  7717.5920       0.28161816       0.48161816       0.28161816       0.28161816       0.54207510E-01   0.24044017E-01
  7717.7100       0.29004517       0.49004517       0.29004517       0.29004517       0.82742434E-01   0.18534457
  7717.8420       0.30230377       0.50230377       0.30230377       0.30230377       0.10054365       0.57506740E-01
  7717.9600       0.31518108       0.51518108       0.31518108       0.31518108       0.97119119E-01  -0.55261359E-01
  7718.0740       0.32483540       0.52483541       0.32483541       0.32483541       0.87723016E-01   0.64830072E-02
  7718.2060       0.33676094       0.53676095       0.33676095       0.33676095       0.98713939E-01   0.16733451E-01
  7718.3280       0.34990874       0.54990875       0.34990875       0.34990875       0.91973313E-01  -0.35486909E-01
  7718.4410       0.35837467       0.55837467       0.35837467       0.35837467       0.90374516E-01  -0.32675003E-01
  7718.5730       0.37205050       0.57205050       0.37205050       0.37205050       0.83967937E-01   0.54733058E-01
  7718.6930       0.37953459       0.57953459       0.37953459       0.37953459       0.10416725       0.16005953
  7718.8050       0.39621730       0.59621730       0.39621730       0.39621730       0.12110175       0.39773260E-01
  7718.9360       0.40896232       0.60896232       0.40896232       0.40896232       0.11383215       0.83824935E-01
  7719.0560       0.42478917       0.62478917       0.42478917       0.42478917       0.14214181       0.45870737E-01
  7719.1680       0.44193921       0.64193922       0.44193922       0.44193922       0.12447416      -0.62264252E-01
  7719.2990       0.45503639       0.65503639       0.45503639       0.45503639       0.12701159       0.22092654
  7719.4200       0.47394614       0.67394614       0.47394614       0.47394614       0.18014765       0.13124051
  7719.5350       0.49755124       0.69755124       0.49755124       0.49755124       0.15798435      -0.19343040
  7719.6660       0.51281029       0.71281029       0.51281029       0.51281029       0.13256377      -0.50181896E-01
  7719.7880       0.53108987       0.73108987       0.53108987       0.53108987       0.14528833       0.15876070
  7719.9010       0.54695304       0.74695305       0.54695305       0.54695305       0.16987253       0.24169257
  7720.0340       0.57287851       0.77287852       0.57287852       0.57287852       0.20474471       0.12702150
  7720.1540       0.59875346       0.79875346       0.59875346       0.59875346       0.20200897      -0.72952926E-01
  7720.2670       0.61994660       0.81994661       0.61994661       0.61994661       0.18774667      -0.83737531E-01
  7720.3970       0.64437590       0.84437590       0.64437590       0.64437590       0.18166075      -0.98452363E-01
  7720.5160       0.66518013       0.86518014       0.66518014       0.66518014       0.16323204      -0.37906190E-01
  7720.6460       0.68502067       0.88502068       0.68502068       0.68502068       0.17222211       0.17579466
  7720.7660       0.70823566       0.90823566       0.70823566       0.70823566       0.20718070       0.19963371
  7720.8790       0.73329378       0.93329378       0.73329378       0.73329378       0.21873676       0.28172279E-01
  7721.0130       0.76226364       0.96226364       0.76226364       0.76226364       0.21413925      -0.16428420
  7721.1330       0.78768515       0.98768516       0.78768516       0.78768516       0.17700858      -0.71989474E-01
  7721.2460       0.80350664        1.0035066       0.80350664       0.80350664       0.19736571       0.25617921
  7721.3790       0.83623711        1.0362371       0.83623712       0.83623712       0.24002866       0.20870376
  7721.5000       0.86447392        1.0644739       0.86441159       0.86441159       0.25037646      -0.40364260E-01
  7721.6120       0.89457483        2.2312514       0.89468701        2.0313635       0.23062379      -0.18807156
  7721.7440       0.92074612        2.2143075       0.92106397        2.0146253       0.20448700       0.92781826E-01
  7721.8620       0.94569658        2.1992929       0.94619829        1.9997946       0.25381925      -0.30229197E-01
  7721.9740       0.97912455        2.1851567       0.97980077        1.9858329       0.19753429      -0.45074486
  7722.1040       0.99349987        2.1688884       0.99437865        1.9697671       0.14473899       0.32371869E-01
  7722.2260        1.0155988        2.1537572        1.0166676        1.9548261       0.20569200       0.26314886
  7722.3580        1.0457456        2.1375336        1.0470202        1.9388081       0.21157880      -0.11789424
  7722.4790        1.0691282        2.1227962        1.0705913        1.9242593       0.17586475      -0.29837269
  7722.5930        1.0870739        2.1090284        1.0887146        1.9106691       0.14146122      -0.32720521
  7722.7240        1.1037862        2.0933472        1.1056310        1.8951920       0.95699477E-01  -0.14123410
  7722.8460        1.1112858        2.0788769        1.1133207        1.8809118       0.10572899       0.26029716
  7722.9580        1.1285268        2.0657058        1.1307362        1.8679152       0.15660901       0.24897586
  7723.0510        1.1433907        2.0548509        1.1457450        1.8572052       0.15676904      -0.15592672
  7723.2130        1.1685029        2.0361192        1.1711096        1.8387259       0.11684770      -0.14824424
  7723.4060        1.1848716        2.0140944        1.1877790        1.8170019       0.10414234       0.15498154E-01
  7723.6030        1.2091184        1.9919379        1.2123328        1.7951523       0.12289198      -0.19082153E-01
  7723.8000        1.2332910        1.9701071        1.2368124        1.7736285       0.96623970E-01  -0.16526184
  7724.0000        1.2474781        1.9482747        1.2513111        1.7521077       0.57283030E-01  -0.20978258
  7724.1980        1.2560897        1.9269866        1.2602312        1.7311280       0.13130502E-01  -0.14070770
  7724.3960        1.2526778        1.9060204        1.2571278        1.7104703       0.15627789E-02  -0.84359652E-02
  7724.5920        1.2567054        1.8855807        1.2614608        1.6903360       0.98067321E-02  -0.39726973E-01
  7724.7890        1.2565319        1.8653499        1.2615942        1.6704122      -0.14049922E-01  -0.96480933E-01
  7725.0080        1.2508607        1.8432256        1.2562642        1.6486291      -0.30329336E-01  -0.26292629E-01
  7725.7230        1.2282043        1.7736359        1.2347218        1.5801535      -0.38607237E-01  -0.79121753E-02
  7726.5070        1.1929884        1.7018785        1.2007276        1.5096176      -0.42189687E-01   0.28275972E-02
  7727.3020        1.1615867        1.6338257        1.1705646        1.4428035      -0.34142461E-01   0.44904749E-02
  7728.0660        1.1397603        1.5727551        1.1499286        1.3829233      -0.35189037E-01   0.38394379E-02
  7728.8300        1.1078179        1.5157892        1.1191765        1.3271478      -0.28275799E-01   0.15198203E-01
  7729.5930        1.0965832        1.4628588        1.1091307        1.2754063      -0.11981381E-01   0.16267488E-01
  7730.3530        1.0895702        1.4139371        1.1033019        1.2276687      -0.35004158E-02   0.72037288E-02
  7731.1470        1.0911435        1.3667328        1.1061123        1.1817016      -0.78678645E-03   0.10022259E-02
  7731.9100        1.0883452        1.3249926        1.1045028        1.1411502      -0.19399501E-02  -0.53585795E-02
  7732.6790        1.0881715        1.2863756        1.1055273        1.1037314      -0.89961303E-02  -0.40688848E-02
  7733.4410        1.0745721        1.2513921        1.0931152        1.0699352      -0.81694128E-02   0.62410216E-02
  7734.2140        1.0756315        1.2191027        1.0953790        1.0388502       0.58383793E-03  -0.58763916E-03
  7734.9760        1.0754683        1.1902898        1.0964031        1.0112246      -0.90714389E-02  -0.10048046E-01
  7735.7750        1.0614710        1.1631470        1.0836507       0.98532668      -0.15101162E-01   0.44668349E-02
  7736.5390        1.0518652        1.1399905        1.0752354       0.96336062      -0.20897760E-02   0.61673704E-02
  7737.3090        1.0582652        1.1192792        1.0828351       0.94384903      -0.56404162E-02  -0.11533763E-01
  7738.0780        1.0431846        1.1010884        1.0689527       0.92685642      -0.19840237E-01  -0.80673105E-02
  7738.8440        1.0278105        1.0853082        1.0547721       0.91226980      -0.18023738E-01   0.52474429E-02
  7739.6160        1.0154641        1.0716279        1.0436286       0.89979238      -0.11769670E-01   0.27105265E-02
  7740.3880        1.0096381        1.0600398        1.0390054       0.88940714      -0.13838685E-01  -0.61306015E-02
  7741.1610       0.99408334        1.0503924        1.0246551       0.88096408      -0.21241449E-01  -0.68442031E-02
  7741.9520       0.97641648        1.0423991        1.0082207       0.87420334      -0.24543018E-01  -0.29075142E-04
  7744.4520       0.91331226        1.0279327       0.94901175       0.86363219      -0.21337136E-01   0.17321987E-02
  7746.9690       0.86936807        1.0262116       0.90898932       0.86583284      -0.15852578E-01   0.18056569E-02
  7749.4530       0.83403352        1.0324126       0.87752513       0.87590415      -0.12307045E-01   0.10969775E-02
  7751.9350       0.80825128        1.0417614       0.85561012       0.88912025      -0.10404987E-01   0.97481046E-03
  7754.4550       0.78198778        1.0508796       0.83327306       0.90216485      -0.74310435E-02   0.19638122E-02
  7756.9490       0.77099203        1.0590558       0.82616325       0.91422704      -0.55843318E-03   0.25573517E-02
  7759.4300       0.77920957        1.0663760       0.83824646       0.92541285       0.52917810E-02   0.16105206E-02
  7761.9470       0.79744035        1.0729969       0.86039902       0.93595559       0.74909486E-02   0.11107077E-02
  7764.4680       0.81694897        1.0788394       0.88383564       0.94572607       0.10887527E-01   0.68671338E-03
  7766.9650       0.85207396        1.0838717       0.92285123       0.95464893       0.10936876E-01   0.79915022E-04
  7769.4620       0.87156773        1.0881766       0.94623561       0.96284443       0.11286622E-01  -0.94544992E-04
  7771.9870       0.90875538        1.0918141       0.98735749       0.97041622       0.10462071E-01  -0.13567976E-02
  7774.4880       0.92415010        1.0947316        1.0066491       0.97723053       0.44673575E-02  -0.16502455E-02
  7776.9970       0.93113684        1.0969967        1.0175451       0.98340499       0.21943413E-02  -0.60832805E-03
  7780.5620       0.93747853        1.0991223        1.0294415       0.99108525       0.77237296E-03  -0.87421447E-03
  7784.1490       0.93666085        1.1000286        1.0342127       0.99758052      -0.40580406E-02  -0.52218218E-03
  7787.6930       0.90854064        1.0997782        1.0116145        1.0028521      -0.29513082E-02   0.65765861E-03
  7791.2820       0.91560917        1.0984331        1.0242751        1.0070990       0.63303823E-03   0.19788831E-03
  7794.8620       0.91307889        1.0960664        1.0273228        1.0103104      -0.15326468E-02  -0.56180984E-03
  7798.4360       0.90464461        1.0927518        1.0244573        1.0125645      -0.33861494E-02  -0.23894190E-03
  7802.0150       0.88885777        1.0885488        1.0142469        1.0139380      -0.32417983E-02  -0.19651322E-04
  7805.6140       0.88137499        1.0835006        1.0123718        1.0144974      -0.35272066E-02   0.96379604E-04
  7809.2040       0.86350068        1.0777141        1.0000911        1.0143045      -0.25489253E-02   0.56684161E-03
  7812.8090       0.86303547        1.0712194        1.0052429        1.0134268       0.55121879E-03  -0.28314579E-04
  7816.3810       0.86745678        1.0641776        1.0152298        1.0119506      -0.27521390E-02  -0.60893252E-03
  7819.9940       0.84326135        1.0565115       0.99666379        1.0099139      -0.38239613E-02   0.29304850E-04
  7823.6050       0.83983248        1.0483744       0.99886127        1.0074032      -0.25404408E-02  -0.54798934E-04
  7827.2230       0.82489650        1.0398167       0.98956254        1.0044827      -0.42201028E-02   0.71279466E-04
  7830.8140       0.80940976        1.0309927       0.97967098        1.0012539      -0.20265871E-02   0.67503200E-03
  7834.4380       0.81027468        1.0218256       0.98618250       0.99773346       0.65025305E-03  -0.54159358E-04
  7838.0600       0.81412149        1.0124723       0.99567280       0.99402362      -0.24190258E-02  -0.33054990E-03
  7841.6900       0.79273190        1.0029787       0.97993916       0.99018591      -0.17468948E-02   0.66359305E-03
  7845.3200       0.80143904       0.99343751       0.99430224       0.98630071       0.23986597E-02   0.11420260E-02
